*  HI b-b recombination spectrum arising from HeI recombination (cont. opacity)
* 
*   Frequency       Delta I_nu 
*     [GHz]      [J m^-2 s^-1 Hz^-1 sr^-1] 
    0.1000000      0.00000
     0.100215      0.00000
     0.100430      0.00000
     0.100645      0.00000
     0.100861      0.00000
     0.101077      0.00000
     0.101294      0.00000
     0.101512      0.00000
     0.101729      0.00000
     0.101948      0.00000
     0.102166      0.00000
     0.102386      0.00000
     0.102605      0.00000
     0.102825      0.00000
     0.103046      0.00000
     0.103267      0.00000
     0.103489      0.00000
     0.103711      0.00000
     0.103933      0.00000
     0.104156      0.00000
     0.104380      0.00000
     0.104604      0.00000
     0.104828      0.00000
     0.105053      0.00000
     0.105279      0.00000
     0.105504      0.00000
     0.105731      0.00000
     0.105958      0.00000
     0.106185      0.00000
     0.106413      0.00000
     0.106641      0.00000
     0.106870      0.00000
     0.107099      0.00000
     0.107329      0.00000
     0.107559      0.00000
     0.107790      0.00000
     0.108021      0.00000
     0.108253      0.00000
     0.108485      0.00000
     0.108718      0.00000
     0.108951      0.00000
     0.109185      0.00000
     0.109420      0.00000
     0.109654      0.00000
     0.109890      0.00000
     0.110125      0.00000
     0.110362      0.00000
     0.110598      0.00000
     0.110836      0.00000
     0.111074      0.00000
     0.111312      0.00000
     0.111551      0.00000
     0.111790      0.00000
     0.112030      0.00000
     0.112270      0.00000
     0.112511      0.00000
     0.112753      0.00000
     0.112994      0.00000
     0.113237      0.00000
     0.113480      0.00000
     0.113723      0.00000
     0.113967      0.00000
     0.114212      0.00000
     0.114457      0.00000
     0.114703      0.00000
     0.114949      0.00000
     0.115195      0.00000
     0.115442      0.00000
     0.115690      0.00000
     0.115938      0.00000
     0.116187      0.00000
     0.116436      0.00000
     0.116686      0.00000
     0.116937      0.00000
     0.117188      0.00000
     0.117439      0.00000
     0.117691      0.00000
     0.117943      0.00000
     0.118197      0.00000
     0.118450      0.00000
     0.118704      0.00000
     0.118959      0.00000
     0.119214      0.00000
     0.119470      0.00000
     0.119726      0.00000
     0.119983      0.00000
     0.120241      0.00000
     0.120499      0.00000
     0.120757      0.00000
     0.121016      0.00000
     0.121276      0.00000
     0.121536      0.00000
     0.121797      0.00000
     0.122058      0.00000
     0.122320      0.00000
     0.122583      0.00000
     0.122846      0.00000
     0.123109      0.00000
     0.123373      0.00000
     0.123638      0.00000
     0.123903      0.00000
     0.124169      0.00000
     0.124436      0.00000
     0.124703      0.00000
     0.124970      0.00000
     0.125238      0.00000
     0.125507      0.00000
     0.125776      0.00000
     0.126046      0.00000
     0.126317      0.00000
     0.126588      0.00000
     0.126859      0.00000
     0.127131      0.00000
     0.127404      0.00000
     0.127678      0.00000
     0.127951      0.00000
     0.128226      0.00000
     0.128501      0.00000
     0.128777      0.00000
     0.129053      0.00000
     0.129330      0.00000
     0.129608      0.00000
     0.129886      0.00000
     0.130164      0.00000
     0.130444      0.00000
     0.130723      0.00000
     0.131004      0.00000
     0.131285      0.00000
     0.131567      0.00000
     0.131849      0.00000
     0.132132      0.00000
     0.132415      0.00000
     0.132700      0.00000
     0.132984      0.00000
     0.133270      0.00000
     0.133556      0.00000
     0.133842      0.00000
     0.134129      0.00000
     0.134417      0.00000
     0.134705      0.00000
     0.134994      0.00000
     0.135284      0.00000
     0.135574      0.00000
     0.135865      0.00000
     0.136157      0.00000
     0.136449      0.00000
     0.136742      0.00000
     0.137035      0.00000
     0.137329      0.00000
     0.137624      0.00000
     0.137919      0.00000
     0.138215      0.00000
     0.138512      0.00000
     0.138809      0.00000
     0.139107      0.00000
     0.139405      0.00000
     0.139704      0.00000
     0.140004      0.00000
     0.140304      0.00000
     0.140605      0.00000
     0.140907      0.00000
     0.141209      0.00000
     0.141512      0.00000
     0.141816      0.00000
     0.142120      0.00000
     0.142425      0.00000
     0.142731      0.00000
     0.143037      0.00000
     0.143344      0.00000
     0.143651      0.00000
     0.143960      0.00000
     0.144269      0.00000
     0.144578      0.00000
     0.144888      0.00000
     0.145199      0.00000
     0.145511      0.00000
     0.145823      0.00000
     0.146136      0.00000
     0.146449      0.00000
     0.146764      0.00000
     0.147078      0.00000
     0.147394      0.00000
     0.147710      0.00000
     0.148027      0.00000
     0.148345      0.00000
     0.148663      0.00000
     0.148982      0.00000
     0.149302      0.00000
     0.149622      0.00000
     0.149943      0.00000
     0.150265      0.00000
     0.150587      0.00000
     0.150910      0.00000
     0.151234      0.00000
     0.151559      0.00000
     0.151884      0.00000
     0.152210      0.00000
     0.152536      0.00000
     0.152864      0.00000
     0.153192      0.00000
     0.153520      0.00000
     0.153850      0.00000
     0.154180      0.00000
     0.154511      0.00000
     0.154842      0.00000
     0.155174      0.00000
     0.155507      0.00000
     0.155841      0.00000
     0.156175      0.00000
     0.156510      0.00000
     0.156846      0.00000
     0.157183      0.00000
     0.157520      0.00000
     0.157858      0.00000
     0.158197      0.00000
     0.158536      0.00000
     0.158876      0.00000
     0.159217      0.00000
     0.159559      0.00000
     0.159901      0.00000
     0.160244      0.00000
     0.160588      0.00000
     0.160933      0.00000
     0.161278      0.00000
     0.161624      0.00000
     0.161971      0.00000
     0.162318      0.00000
     0.162666      0.00000
     0.163016      0.00000
     0.163365      0.00000
     0.163716      0.00000
     0.164067      0.00000
     0.164419      0.00000
     0.164772      0.00000
     0.165125      0.00000
     0.165480      0.00000
     0.165835      0.00000
     0.166191      0.00000
     0.166547      0.00000
     0.166904      0.00000
     0.167263      0.00000
     0.167621      0.00000
     0.167981      0.00000
     0.168342      0.00000
     0.168703      0.00000
     0.169065      0.00000
     0.169427      0.00000
     0.169791      0.00000
     0.170155      0.00000
     0.170520      0.00000
     0.170886      0.00000
     0.171253      0.00000
     0.171620      0.00000
     0.171989      0.00000
     0.172358      0.00000
     0.172727      0.00000
     0.173098      0.00000
     0.173469      0.00000
     0.173842      0.00000
     0.174215      0.00000
     0.174588      0.00000
     0.174963      0.00000
     0.175338      0.00000
     0.175715      0.00000
     0.176092      0.00000
     0.176469      0.00000
     0.176848      0.00000
     0.177228      0.00000
     0.177608      0.00000
     0.177989      0.00000
     0.178371      0.00000
     0.178754      0.00000
     0.179137      0.00000
     0.179521      0.00000
     0.179907      0.00000
     0.180293      0.00000
     0.180679      0.00000
     0.181067      0.00000
     0.181456      0.00000
     0.181845      0.00000
     0.182235      0.00000
     0.182626      0.00000
     0.183018      0.00000
     0.183411      0.00000
     0.183804      0.00000
     0.184199      0.00000
     0.184594      0.00000
     0.184990      0.00000
     0.185387      0.00000
     0.185784      0.00000
     0.186183      0.00000
     0.186583      0.00000
     0.186983      0.00000
     0.187384      0.00000
     0.187786      0.00000
     0.188189      0.00000
     0.188593      0.00000
     0.188998      0.00000
     0.189403      0.00000
     0.189809      0.00000
     0.190217      0.00000
     0.190625      0.00000
     0.191034      0.00000
     0.191444      0.00000
     0.191854      0.00000
     0.192266      0.00000
     0.192679      0.00000
     0.193092      0.00000
     0.193506      0.00000
     0.193922      0.00000
     0.194338      0.00000
     0.194755      0.00000
     0.195172      0.00000
     0.195591      0.00000
     0.196011      0.00000
     0.196431      0.00000
     0.196853      0.00000
     0.197275      0.00000
     0.197699      0.00000
     0.198123      0.00000
     0.198548      0.00000
     0.198974      0.00000
     0.199401      0.00000
     0.199829      0.00000
     0.200257      0.00000
     0.200687      0.00000
     0.201118      0.00000
     0.201549      0.00000
     0.201982      0.00000
     0.202415      0.00000
     0.202849      0.00000
     0.203285      0.00000
     0.203721      0.00000
     0.204158      0.00000
     0.204596      0.00000
     0.205035      0.00000
     0.205475      0.00000
     0.205916      0.00000
     0.206357      0.00000
     0.206800      0.00000
     0.207244      0.00000
     0.207689      0.00000
     0.208134      0.00000
     0.208581      0.00000
     0.209028      0.00000
     0.209477      0.00000
     0.209926      0.00000
     0.210377      0.00000
     0.210828      0.00000
     0.211280      0.00000
     0.211734      0.00000
     0.212188      0.00000
     0.212643      0.00000
     0.213100      0.00000
     0.213557      0.00000
     0.214015      0.00000
     0.214474      0.00000
     0.214934      0.00000
     0.215396      0.00000
     0.215858      0.00000
     0.216321      0.00000
     0.216785      0.00000
     0.217250      0.00000
     0.217716      0.00000
     0.218183      0.00000
     0.218652      0.00000
     0.219121      0.00000
     0.219591      0.00000
     0.220062      0.00000
     0.220534      0.00000
     0.221007      0.00000
     0.221481      0.00000
     0.221957      0.00000
     0.222433      0.00000
     0.222910      0.00000
     0.223388      0.00000
     0.223868      0.00000
     0.224348      0.00000
     0.224829      0.00000
     0.225312      0.00000
     0.225795      0.00000
     0.226280      0.00000
     0.226765      0.00000
     0.227252      0.00000
     0.227739      0.00000
     0.228228      0.00000
     0.228718      0.00000
     0.229208      0.00000
     0.229700      0.00000
     0.230193      0.00000
     0.230687      0.00000
     0.231182      0.00000
     0.231678      0.00000
     0.232175      0.00000
     0.232673      0.00000
     0.233173      0.00000
     0.233673      0.00000
     0.234174      0.00000
     0.234677      0.00000
     0.235180      0.00000
     0.235685      0.00000
     0.236190      0.00000
     0.236697      0.00000
     0.237205      0.00000
     0.237714      0.00000
     0.238224      0.00000
     0.238735      0.00000
     0.239247      0.00000
     0.239761      0.00000
     0.240275      0.00000
     0.240791      0.00000
     0.241307      0.00000
     0.241825      0.00000
     0.242344      0.00000
     0.242864      0.00000
     0.243385      0.00000
     0.243907      0.00000
     0.244431      0.00000
     0.244955      0.00000
     0.245481      0.00000
     0.246007      0.00000
     0.246535      0.00000
     0.247064      0.00000
     0.247594      0.00000
     0.248125      0.00000
     0.248658      0.00000
     0.249191      0.00000
     0.249726      0.00000
     0.250262      0.00000
     0.250799      0.00000
     0.251337      0.00000
     0.251876      0.00000
     0.252417      0.00000
     0.252958      0.00000
     0.253501      0.00000
     0.254045      0.00000
     0.254590      0.00000
     0.255136      0.00000
     0.255684      0.00000
     0.256232      0.00000
     0.256782      0.00000
     0.257333      0.00000
     0.257885      0.00000
     0.258438      0.00000
     0.258993      0.00000
     0.259549      0.00000
     0.260106      0.00000
     0.260664      0.00000
     0.261223      0.00000
     0.261783      0.00000
     0.262345      0.00000
     0.262908      0.00000
     0.263472      0.00000
     0.264037      0.00000
     0.264604      0.00000
     0.265172      0.00000
     0.265741      0.00000
     0.266311      0.00000
     0.266882      0.00000
     0.267455      0.00000
     0.268029      0.00000
     0.268604      0.00000
     0.269180      0.00000
     0.269758      0.00000
     0.270336      0.00000
     0.270916      0.00000
     0.271498      0.00000
     0.272080      0.00000
     0.272664      0.00000
     0.273249      0.00000
     0.273835      0.00000
     0.274423      0.00000
     0.275012      0.00000
     0.275602      0.00000
     0.276193      0.00000
     0.276786      0.00000
     0.277380      0.00000
     0.277975      0.00000
     0.278571      0.00000
     0.279169      0.00000
     0.279768      0.00000
     0.280368      0.00000
     0.280970      0.00000
     0.281573      0.00000
     0.282177      0.00000
     0.282782      0.00000
     0.283389      0.00000
     0.283997      0.00000
     0.284606      0.00000
     0.285217      0.00000
     0.285829      0.00000
     0.286442      0.00000
     0.287057      0.00000
     0.287673      0.00000
     0.288290      0.00000
     0.288908      0.00000
     0.289528      0.00000
     0.290150      0.00000
     0.290772      0.00000
     0.291396      0.00000
     0.292021      0.00000
     0.292648      0.00000
     0.293276      0.00000
     0.293905      0.00000
     0.294536      0.00000
     0.295167      0.00000
     0.295801      0.00000
     0.296435      0.00000
     0.297071      0.00000
     0.297709      0.00000
     0.298348      0.00000
     0.298988      0.00000
     0.299629      0.00000
     0.300272      0.00000
     0.300916      0.00000
     0.301562      0.00000
     0.302209      0.00000
     0.302858      0.00000
     0.303507      0.00000
     0.304159      0.00000
     0.304811      0.00000
     0.305465      0.00000
     0.306121      0.00000
     0.306777      0.00000
     0.307436      0.00000
     0.308095      0.00000
     0.308756      0.00000
     0.309419      0.00000
     0.310083      0.00000
     0.310748      0.00000
     0.311415      0.00000
     0.312083      0.00000
     0.312753      0.00000
     0.313424      0.00000
     0.314096      0.00000
     0.314770      0.00000
     0.315445      0.00000
     0.316122      0.00000
     0.316800      0.00000
     0.317480      0.00000
     0.318161      0.00000
     0.318844      0.00000
     0.319528      0.00000
     0.320214      0.00000
     0.320901      0.00000
     0.321589      0.00000
     0.322279      0.00000
     0.322971      0.00000
     0.323664      0.00000
     0.324358      0.00000
     0.325054      0.00000
     0.325752      0.00000
     0.326451      0.00000
     0.327151      0.00000
     0.327853      0.00000
     0.328556      0.00000
     0.329261      0.00000
     0.329968      0.00000
     0.330676      0.00000
     0.331385      0.00000
     0.332096      0.00000
     0.332809      0.00000
     0.333523      0.00000
     0.334239      0.00000
     0.334956      0.00000
     0.335674      0.00000
     0.336395      0.00000
     0.337116      0.00000
     0.337840      0.00000
     0.338565      0.00000
     0.339291      0.00000
     0.340019      0.00000
     0.340749      0.00000
     0.341480      0.00000
     0.342212      0.00000
     0.342947      0.00000
     0.343682      0.00000
     0.344420      0.00000
     0.345159      0.00000
     0.345899      0.00000
     0.346642      0.00000
     0.347385      0.00000
     0.348131      0.00000
     0.348878      0.00000
     0.349626      0.00000
     0.350376      0.00000
     0.351128      0.00000
     0.351882      0.00000
     0.352636      0.00000
     0.353393      0.00000
     0.354151      0.00000
     0.354911      0.00000
     0.355673      0.00000
     0.356436      0.00000
     0.357201      0.00000
     0.357967      0.00000
     0.358735      0.00000
     0.359505      0.00000
     0.360276      0.00000
     0.361049      0.00000
     0.361824      0.00000
     0.362600      0.00000
     0.363378      0.00000
     0.364158      0.00000
     0.364939      0.00000
     0.365722      0.00000
     0.366507      0.00000
     0.367293      0.00000
     0.368081      0.00000
     0.368871      0.00000
     0.369663      0.00000
     0.370456      0.00000
     0.371251      0.00000
     0.372047      0.00000
     0.372845      0.00000
     0.373645      0.00000
     0.374447      0.00000
     0.375251      0.00000
     0.376056      0.00000
     0.376863      0.00000
     0.377671      0.00000
     0.378481      0.00000
     0.379294      0.00000
     0.380107      0.00000
     0.380923      0.00000
     0.381740      0.00000
     0.382559      0.00000
     0.383380      0.00000
     0.384203      0.00000
     0.385027      0.00000
     0.385853      0.00000
     0.386681      0.00000
     0.387511      0.00000
     0.388342      0.00000
     0.389175      0.00000
     0.390010      0.00000
     0.390847      0.00000
     0.391686      0.00000
     0.392526      0.00000
     0.393368      0.00000
     0.394213      0.00000
     0.395058      0.00000
     0.395906      0.00000
     0.396755      0.00000
     0.397607      0.00000
     0.398460      0.00000
     0.399315      0.00000
     0.400171      0.00000
     0.401030      0.00000
     0.401891      0.00000
     0.402753      0.00000
     0.403617      0.00000
     0.404483      0.00000
     0.405351      0.00000
     0.406221      0.00000
     0.407092      0.00000
     0.407966      0.00000
     0.408841      0.00000
     0.409718      0.00000
     0.410597      0.00000
     0.411478      0.00000
     0.412361      0.00000
     0.413246      0.00000
     0.414133      0.00000
     0.415021      0.00000
     0.415912      0.00000
     0.416804      0.00000
     0.417698      0.00000
     0.418595      0.00000
     0.419493      0.00000
     0.420393      0.00000
     0.421295      0.00000
     0.422199      0.00000
     0.423105      0.00000
     0.424012      0.00000
     0.424922      0.00000
     0.425834      0.00000
     0.426748      0.00000
     0.427663      0.00000
     0.428581      0.00000
     0.429500      0.00000
     0.430422      0.00000
     0.431345      0.00000
     0.432271      0.00000
     0.433198      0.00000
     0.434128      0.00000
     0.435059      0.00000
     0.435993      0.00000
     0.436928      0.00000
     0.437866      0.00000
     0.438805      0.00000
     0.439747      0.00000
     0.440690      0.00000
     0.441636      0.00000
     0.442583      0.00000
     0.443533      0.00000
     0.444485      0.00000
     0.445438      0.00000
     0.446394      0.00000
     0.447352      0.00000
     0.448312      0.00000
     0.449274      0.00000
     0.450238      0.00000
     0.451204      0.00000
     0.452172      0.00000
     0.453142      0.00000
     0.454114      0.00000
     0.455089      0.00000
     0.456065      0.00000
     0.457044      0.00000
     0.458024      0.00000
     0.459007      0.00000
     0.459992      0.00000
     0.460979      0.00000
     0.461968      0.00000
     0.462959      0.00000
     0.463952      0.00000
     0.464948      0.00000
     0.465945      0.00000
     0.466945      0.00000
     0.467947      0.00000
     0.468951      0.00000
     0.469957      0.00000
     0.470966      0.00000
     0.471976      0.00000
     0.472989      0.00000
     0.474004      0.00000
     0.475021      0.00000
     0.476040      0.00000
     0.477061      0.00000
     0.478085      0.00000
     0.479111      0.00000
     0.480139      0.00000
     0.481169      0.00000
     0.482201      0.00000
     0.483236      0.00000
     0.484273      0.00000
     0.485312      0.00000
     0.486353      0.00000
     0.487397      0.00000
     0.488442      0.00000
     0.489490      0.00000
     0.490541      0.00000
     0.491593      0.00000
     0.492648      0.00000
     0.493705      0.00000
     0.494764      0.00000
     0.495826      0.00000
     0.496890      0.00000
     0.497956      0.00000
     0.499024      0.00000
     0.500095      0.00000
     0.501168      0.00000
     0.502243      0.00000
     0.503321      0.00000
     0.504401      0.00000
     0.505483      0.00000
     0.506567      0.00000
     0.507654      0.00000
     0.508744      0.00000
     0.509835      0.00000
     0.510929      0.00000
     0.512025      0.00000
     0.513124      0.00000
     0.514225      0.00000
     0.515328      0.00000
     0.516434      0.00000
     0.517542      0.00000
     0.518652      0.00000
     0.519765      0.00000
     0.520880      0.00000
     0.521998      0.00000
     0.523118      0.00000
     0.524241      0.00000
     0.525365      0.00000
     0.526493      0.00000
     0.527622      0.00000
     0.528754      0.00000
     0.529889      0.00000
     0.531026      0.00000
     0.532165      0.00000
     0.533307      0.00000
     0.534451      0.00000
     0.535598      0.00000
     0.536747      0.00000
     0.537899      0.00000
     0.539053      0.00000
     0.540209      0.00000
     0.541369      0.00000
     0.542530      0.00000
     0.543694      0.00000
     0.544861      0.00000
     0.546030      0.00000
     0.547201      0.00000
     0.548375      0.00000
     0.549552      0.00000
     0.550731      0.00000
     0.551913      0.00000
     0.553097      0.00000
     0.554284      0.00000
     0.555473      0.00000
     0.556665      0.00000
     0.557859      0.00000
     0.559056      0.00000
     0.560256      0.00000
     0.561458      0.00000
     0.562662      0.00000
     0.563870      0.00000
     0.565080      0.00000
     0.566292      0.00000
     0.567507      0.00000
     0.568725      0.00000
     0.569945      0.00000
     0.571168      0.00000
     0.572393      0.00000
     0.573622      0.00000
     0.574852      0.00000
     0.576086      0.00000
     0.577322      0.00000
     0.578560      0.00000
     0.579802      0.00000
     0.581046      0.00000
     0.582292      0.00000
     0.583542      0.00000
     0.584794      0.00000
     0.586049      0.00000
     0.587306      0.00000
     0.588566      0.00000
     0.589829      0.00000
     0.591095      0.00000
     0.592363      0.00000
     0.593634      0.00000
     0.594908      0.00000
     0.596184      0.00000
     0.597463      0.00000
     0.598745      0.00000
     0.600030      0.00000
     0.601317      0.00000
     0.602607      0.00000
     0.603900      0.00000
     0.605196      0.00000
     0.606495      0.00000
     0.607796      0.00000
     0.609100      0.00000
     0.610407      0.00000
     0.611717      0.00000
     0.613029      0.00000
     0.614344      0.00000
     0.615663      0.00000
     0.616984      0.00000
     0.618307      0.00000
     0.619634      0.00000
     0.620964      0.00000
     0.622296      0.00000
     0.623631      0.00000
     0.624969      0.00000
     0.626310      0.00000
     0.627654      0.00000
     0.629001      0.00000
     0.630350      0.00000
     0.631703      0.00000
     0.633058      0.00000
     0.634416      0.00000
     0.635778      0.00000
     0.637142      0.00000
     0.638509      0.00000
     0.639879      0.00000
     0.641252      0.00000
     0.642627      0.00000
     0.644006      0.00000
     0.645388      0.00000
     0.646773      0.00000
     0.648161      0.00000
     0.649551      0.00000
     0.650945      0.00000
     0.652342      0.00000
     0.653741      0.00000
     0.655144      0.00000
     0.656550      0.00000
     0.657958      0.00000
     0.659370      0.00000
     0.660785      0.00000
     0.662203      0.00000
     0.663623      0.00000
     0.665047      0.00000
     0.666474      0.00000
     0.667904      0.00000
     0.669337      0.00000
     0.670773      0.00000
     0.672213      0.00000
     0.673655      0.00000
     0.675100      0.00000
     0.676549      0.00000
     0.678001      0.00000
     0.679455      0.00000
     0.680913      0.00000
     0.682374      0.00000
     0.683838      0.00000
     0.685305      0.00000
     0.686776      0.00000
     0.688249      0.00000
     0.689726      0.00000
     0.691206      0.00000
     0.692689      0.00000
     0.694175      0.00000
     0.695665      0.00000
     0.697157      0.00000
     0.698653      0.00000
     0.700152      0.00000
     0.701654      0.00000
     0.703160      0.00000
     0.704669      0.00000
     0.706181      0.00000
     0.707696      0.00000
     0.709214      0.00000
     0.710736      0.00000
     0.712261      0.00000
     0.713789      0.00000
     0.715321      0.00000
     0.716856      0.00000
     0.718394      0.00000
     0.719935      0.00000
     0.721480      0.00000
     0.723028      0.00000
     0.724579      0.00000
     0.726134      0.00000
     0.727692      0.00000
     0.729253      0.00000
     0.730818      0.00000
     0.732386      0.00000
     0.733957      0.00000
     0.735532      0.00000
     0.737110      0.00000
     0.738692      0.00000
     0.740277      0.00000
     0.741865      0.00000
     0.743457      0.00000
     0.745052      0.00000
     0.746650      0.00000
     0.748253      0.00000
     0.749858      0.00000
     0.751467      0.00000
     0.753079      0.00000
     0.754695      0.00000
     0.756314      0.00000
     0.757937      0.00000
     0.759563      0.00000
     0.761193      0.00000
     0.762826      0.00000
     0.764463      0.00000
     0.766103      0.00000
     0.767747      0.00000
     0.769394      0.00000
     0.771045      0.00000
     0.772699      0.00000
     0.774357      0.00000
     0.776019      0.00000
     0.777684      0.00000
     0.779352      0.00000
     0.781025      0.00000
     0.782700      0.00000
     0.784380      0.00000
     0.786063      0.00000
     0.787749      0.00000
     0.789439      0.00000
     0.791133      0.00000
     0.792831      0.00000
     0.794532      0.00000
     0.796237      0.00000
     0.797945      0.00000
     0.799657      0.00000
     0.801373      0.00000
     0.803092      0.00000
     0.804815      0.00000
     0.806542      0.00000
     0.808273      0.00000
     0.810007      0.00000
     0.811745      0.00000
     0.813487      0.00000
     0.815232      0.00000
     0.816981      0.00000
     0.818734      0.00000
     0.820491      0.00000
     0.822251      0.00000
     0.824016      0.00000
     0.825784      0.00000
     0.827556      0.00000
     0.829331      0.00000
     0.831110      0.00000
     0.832894      0.00000
     0.834681      0.00000
     0.836472      0.00000
     0.838266      0.00000
     0.840065      0.00000
     0.841867      0.00000
     0.843674      0.00000
     0.845484      0.00000
     0.847298      0.00000
     0.849116      0.00000
     0.850938      0.00000
     0.852764      0.00000
     0.854593      0.00000
     0.856427      0.00000
     0.858265      0.00000
     0.860106      0.00000
     0.861952      0.00000
     0.863801      0.00000
     0.865654      0.00000
     0.867512      0.00000
     0.869373      0.00000
     0.871238      0.00000
     0.873108      0.00000
     0.874981      0.00000
     0.876858      0.00000
     0.878740      0.00000
     0.880625      0.00000
     0.882515      0.00000
     0.884408      0.00000
     0.886306      0.00000
     0.888208      0.00000
     0.890113      0.00000
     0.892023      0.00000
     0.893937      0.00000
     0.895855      0.00000
     0.897777      0.00000
     0.899704      0.00000
     0.901634      0.00000
     0.903569      0.00000
     0.905507      0.00000
     0.907450      0.00000
     0.909397      0.00000
     0.911348      0.00000
     0.913304      0.00000
     0.915263      0.00000
     0.917227      0.00000
     0.919195      0.00000
     0.921167      0.00000
     0.923144      0.00000
     0.925124      0.00000
     0.927109      0.00000
     0.929099      0.00000
     0.931092      0.00000
     0.933090      0.00000
     0.935092      0.00000
     0.937098      0.00000
     0.939109      0.00000
     0.941124      0.00000
     0.943143      0.00000
     0.945167      0.00000
     0.947195      0.00000
     0.949227      0.00000
     0.951264      0.00000
     0.953305      0.00000
     0.955350      0.00000
     0.957400      0.00000
     0.959454      0.00000
     0.961513      0.00000
     0.963576      0.00000
     0.965643      0.00000
     0.967715      0.00000
     0.969792      0.00000
     0.971873      0.00000
     0.973958      0.00000
     0.976047      0.00000
     0.978142      0.00000
     0.980240      0.00000
     0.982344      0.00000
     0.984451      0.00000
     0.986564      0.00000
     0.988680      0.00000
     0.990802      0.00000
     0.992927      0.00000
     0.995058      0.00000
     0.997193      0.00000
     0.999333      0.00000
      1.00148      0.00000
      1.00363      0.00000
      1.00578      0.00000
      1.00794      0.00000
      1.01010      0.00000
      1.01227      0.00000
      1.01444      0.00000
      1.01662      0.00000
      1.01880      0.00000
      1.02098      0.00000
      1.02317      0.00000
      1.02537      0.00000
      1.02757      0.00000
      1.02977      0.00000
      1.03198      0.00000
      1.03420      0.00000
      1.03642      0.00000
      1.03864      0.00000
      1.04087      0.00000
      1.04310      0.00000
      1.04534      0.00000
      1.04758      0.00000
      1.04983      0.00000
      1.05208      0.00000
      1.05434      0.00000
      1.05660      0.00000
      1.05887      0.00000
      1.06114      0.00000
      1.06342      0.00000
      1.06570      0.00000
      1.06799      0.00000
      1.07028      0.00000
      1.07257      0.00000
      1.07488      0.00000
      1.07718      0.00000
      1.07949      0.00000
      1.08181      0.00000
      1.08413      0.00000
      1.08646      0.00000
      1.08879      0.00000
      1.09112      0.00000
      1.09346      0.00000
      1.09581      0.00000
      1.09816      0.00000
      1.10052      0.00000
      1.10288      0.00000
      1.10525      0.00000
      1.10762      0.00000
      1.10999      0.00000
      1.11238      0.00000
      1.11476      0.00000
      1.11715      0.00000
      1.11955      0.00000
      1.12195      0.00000
      1.12436      0.00000
      1.12677      0.00000
      1.12919      0.00000
      1.13161      0.00000
      1.13404      0.00000
      1.13647      0.00000
      1.13891      0.00000
      1.14136      0.00000
      1.14381      0.00000
      1.14626      0.00000
      1.14872      0.00000
      1.15118      0.00000
      1.15365      0.00000
      1.15613      0.00000
      1.15861      0.00000
      1.16110      0.00000
      1.16359      0.00000
      1.16608      0.00000
      1.16859      0.00000
      1.17109      0.00000
      1.17361      0.00000
      1.17612      0.00000
      1.17865      0.00000
      1.18118      0.00000
      1.18371      0.00000
      1.18625      0.00000
      1.18880      0.00000
      1.19135      0.00000
      1.19390      0.00000
      1.19646      0.00000
      1.19903      0.00000
      1.20160      0.00000
      1.20418      0.00000
      1.20677      0.00000
      1.20935      0.00000
      1.21195      0.00000
      1.21455      0.00000
      1.21716      0.00000
      1.21977      0.00000
      1.22238      0.00000
      1.22501      0.00000
      1.22764      0.00000
      1.23027      0.00000
      1.23291      0.00000
      1.23555      0.00000
      1.23821      0.00000
      1.24086      0.00000
      1.24353      0.00000
      1.24619      0.00000
      1.24887      0.00000
      1.25155      0.00000
      1.25423      0.00000
      1.25692      0.00000
      1.25962      0.00000
      1.26232      0.00000
      1.26503      0.00000
      1.26775      0.00000
      1.27047      0.00000
      1.27319      0.00000
      1.27592      0.00000
      1.27866      0.00000
      1.28140      0.00000
      1.28415      0.00000
      1.28691      0.00000
      1.28967      0.00000
      1.29244      0.00000
      1.29521      0.00000
      1.29799      0.00000
      1.30077      0.00000
      1.30357      0.00000
      1.30636      0.00000
      1.30917      0.00000
      1.31197      0.00000
      1.31479      0.00000
      1.31761      0.00000
      1.32044      0.00000
      1.32327      0.00000
      1.32611      0.00000
      1.32895      0.00000
      1.33181      0.00000
      1.33466      0.00000
      1.33753      0.00000
      1.34040      0.00000
      1.34327      0.00000
      1.34616      0.00000
      1.34904      0.00000
      1.35194      0.00000
      1.35484      0.00000
      1.35775      0.00000
      1.36066      0.00000
      1.36358      0.00000
      1.36650      0.00000
      1.36944      0.00000
      1.37237      0.00000
      1.37532      0.00000
      1.37827      0.00000
      1.38123      0.00000
      1.38419      0.00000
      1.38716      0.00000
      1.39014      0.00000
      1.39312      0.00000
      1.39611      0.00000
      1.39910      0.00000
      1.40211      0.00000
      1.40511      0.00000
      1.40813      0.00000
      1.41115      0.00000
      1.41418      0.00000
      1.41721      0.00000
      1.42025      0.00000
      1.42330      0.00000
      1.42636      0.00000
      1.42942      0.00000
      1.43248      0.00000
      1.43556      0.00000
      1.43864      0.00000
      1.44172      0.00000
      1.44482      0.00000
      1.44792      0.00000
      1.45102      0.00000
      1.45414      0.00000
      1.45726      0.00000
      1.46038      0.00000
      1.46352      0.00000
      1.46666      0.00000
      1.46980      0.00000
      1.47296      0.00000
      1.47612      0.00000
      1.47928      0.00000
      1.48246      0.00000
      1.48564      0.00000
      1.48883      0.00000
      1.49202      0.00000
      1.49522      0.00000
      1.49843      0.00000
      1.50165      0.00000
      1.50487      0.00000
      1.50810      0.00000
      1.51133      0.00000
      1.51458      0.00000
      1.51782      0.00000
      1.52108      0.00000
      1.52435      0.00000
      1.52762      0.00000
      1.53089      0.00000
      1.53418      0.00000
      1.53747      0.00000
      1.54077      0.00000
      1.54407      0.00000
      1.54739      0.00000
      1.55071      0.00000
      1.55404      0.00000
      1.55737      0.00000
      1.56071      0.00000
      1.56406      0.00000
      1.56742      0.00000
      1.57078      0.00000
      1.57415      0.00000
      1.57753      0.00000
      1.58091      0.00000
      1.58430      0.00000
      1.58770      0.00000
      1.59111      0.00000
      1.59452      0.00000
      1.59794      0.00000
      1.60137      0.00000
      1.60481      0.00000
      1.60825      0.00000
      1.61170      0.00000
      1.61516      0.00000
      1.61863      0.00000
      1.62210      0.00000
      1.62558      0.00000
      1.62907      0.00000
      1.63256      0.00000
      1.63607      0.00000
      1.63958      0.00000
      1.64309      0.00000
      1.64662      0.00000
      1.65015      0.00000
      1.65369      0.00000
      1.65724      0.00000
      1.66080      0.00000
      1.66436      0.00000
      1.66793      0.00000
      1.67151      0.00000
      1.67510      0.00000
      1.67869      0.00000
      1.68229      0.00000
      1.68590      0.00000
      1.68952      0.00000
      1.69314      0.00000
      1.69678      0.00000
      1.70042      0.00000
      1.70407      0.00000
      1.70772      0.00000
      1.71139      0.00000
      1.71506      0.00000
      1.71874      0.00000
      1.72243      0.00000
      1.72612      0.00000
      1.72982      0.00000
      1.73354      0.00000
      1.73726      0.00000
      1.74098      0.00000
      1.74472      0.00000
      1.74846      0.00000
      1.75221      0.00000
      1.75597      0.00000
      1.75974      0.00000
      1.76352      0.00000
      1.76730      0.00000
      1.77109      0.00000
      1.77489      0.00000
      1.77870      0.00000
      1.78252      0.00000
      1.78634      0.00000
      1.79017      0.00000
      1.79402      0.00000
      1.79786      0.00000
      1.80172      0.00000
      1.80559      0.00000
      1.80946      0.00000
      1.81334      0.00000
      1.81724      0.00000
      1.82113      0.00000
      1.82504      0.00000
      1.82896      0.00000
      1.83288      0.00000
      1.83682      0.00000
      1.84076      0.00000
      1.84471      0.00000
      1.84866      0.00000
      1.85263      0.00000
      1.85661      0.00000
      1.86059      0.00000
      1.86458      0.00000
      1.86858      0.00000
      1.87259      0.00000
      1.87661      0.00000
      1.88063      0.00000
      1.88467      0.00000
      1.88871      0.00000
      1.89277      0.00000
      1.89683      0.00000
      1.90090      0.00000
      1.90498      0.00000
      1.90906      0.00000
      1.91316      0.00000
      1.91726      0.00000
      1.92138      0.00000
      1.92550      0.00000
      1.92963      0.00000
      1.93377      0.00000
      1.93792      0.00000
      1.94208      0.00000
      1.94625      0.00000
      1.95042      0.00000
      1.95461      0.00000
      1.95880      0.00000
      1.96300      0.00000
      1.96722      0.00000
      1.97144      0.00000
      1.97567      0.00000
      1.97991      0.00000
      1.98415      0.00000
      1.98841      0.00000
      1.99268      0.00000
      1.99695      0.00000
      2.00124      0.00000
      2.00553      0.00000
      2.00983      0.00000
      2.01415      0.00000
      2.01847      0.00000
      2.02280      0.00000
      2.02714      0.00000
      2.03149      0.00000
      2.03585      0.00000
      2.04022      0.00000
      2.04459      0.00000
      2.04898      0.00000
      2.05338      0.00000
      2.05778      0.00000
      2.06220      0.00000
      2.06662      0.00000
      2.07106      0.00000
      2.07550      0.00000
      2.07995      0.00000
      2.08442      0.00000
      2.08889      0.00000
      2.09337      0.00000
      2.09786      0.00000
      2.10236      0.00000
      2.10687      0.00000
      2.11139      0.00000
      2.11592      0.00000
      2.12046      0.00000
      2.12501      0.00000
      2.12957      0.00000
      2.13414      0.00000
      2.13872      0.00000
      2.14331      0.00000
      2.14791      0.00000
      2.15252      0.00000
      2.15714      0.00000
      2.16176      0.00000
      2.16640      0.00000
      2.17105      0.00000
      2.17571      0.00000
      2.18038      0.00000
      2.18506      0.00000
      2.18974      0.00000
      2.19444      0.00000
      2.19915      0.00000
      2.20387      0.00000
      2.20860      0.00000
      2.21334      0.00000
      2.21809      0.00000
      2.22284      0.00000
      2.22761      0.00000
      2.23239      0.00000
      2.23718      0.00000
      2.24198      0.00000
      2.24679      0.00000
      2.25162      0.00000
      2.25645      0.00000
      2.26129      0.00000
      2.26614      0.00000
      2.27100      0.00000
      2.27587      0.00000
      2.28076      0.00000
      2.28565      0.00000
      2.29055      0.00000
      2.29547      0.00000
      2.30040      0.00000
      2.30533      0.00000
      2.31028      0.00000
      2.31523      0.00000
      2.32020      0.00000
      2.32518      0.00000
      2.33017      0.00000
      2.33517      0.00000
      2.34018      0.00000
      2.34520      0.00000
      2.35023      0.00000
      2.35527      0.00000
      2.36033      0.00000
      2.36539      0.00000
      2.37047      0.00000
      2.37555      0.00000
      2.38065      0.00000
      2.38576      0.00000
      2.39088      0.00000
      2.39601      0.00000
      2.40115      0.00000
      2.40630      0.00000
      2.41146      0.00000
      2.41664      0.00000
      2.42182      0.00000
      2.42702      0.00000
      2.43223      0.00000
      2.43744      0.00000
      2.44267      0.00000
      2.44792      0.00000
      2.45317      0.00000
      2.45843      0.00000
      2.46371      0.00000
      2.46899      0.00000
      2.47429      0.00000
      2.47960      0.00000
      2.48492      0.00000
      2.49025      0.00000
      2.49559      0.00000
      2.50095      0.00000
      2.50631      0.00000
      2.51169      0.00000
      2.51708      0.00000
      2.52248      0.00000
      2.52789      0.00000
      2.53332      0.00000
      2.53875      0.00000
      2.54420      0.00000
      2.54966      0.00000
      2.55513      0.00000
      2.56061      0.00000
      2.56611      0.00000
      2.57161      0.00000
      2.57713      0.00000
      2.58266      0.00000
      2.58820      0.00000
      2.59375      0.00000
      2.59932      0.00000
      2.60490      0.00000
      2.61049      0.00000
      2.61609      0.00000
      2.62170      0.00000
      2.62733      0.00000
      2.63296      0.00000
      2.63861      0.00000
      2.64427      0.00000
      2.64995      0.00000
      2.65563      0.00000
      2.66133      0.00000
      2.66704      0.00000
      2.67276      0.00000
      2.67850      0.00000
      2.68424      0.00000
      2.69000      0.00000
      2.69578      0.00000
      2.70156      0.00000
      2.70736      0.00000
      2.71316      0.00000
      2.71899      0.00000
      2.72482      0.00000
      2.73067      0.00000
      2.73653      0.00000
      2.74240      0.00000
      2.74828      0.00000
      2.75418      0.00000
      2.76009      0.00000
      2.76601      0.00000
      2.77194      0.00000
      2.77789      0.00000
      2.78385      0.00000
      2.78982      0.00000
      2.79581      0.00000
      2.80181      0.00000
      2.80782      0.00000
      2.81385      0.00000
      2.81988      0.00000
      2.82593      0.00000
      2.83200      0.00000
      2.83807      0.00000
      2.84416      0.00000
      2.85027      0.00000
      2.85638      0.00000
      2.86251      0.00000
      2.86865      0.00000
      2.87481      0.00000
      2.88097      0.00000
      2.88716      0.00000
      2.89335      0.00000
      2.89956      0.00000
      2.90578      0.00000
      2.91201      0.00000
      2.91826      0.00000
      2.92452      0.00000
      2.93080      0.00000
      2.93709      0.00000
      2.94339      0.00000
      2.94970      0.00000
      2.95603      0.00000
      2.96238      0.00000
      2.96873      0.00000
      2.97510      0.00000
      2.98149      0.00000
      2.98788      0.00000
      2.99429      0.00000
      3.00072  4.51202e-32
      3.00716  4.59926e-32
      3.01361  4.69008e-32
      3.02007  4.78616e-32
      3.02655  4.88966e-32
      3.03305  5.00334e-32
      3.03956  5.12595e-32
      3.04608  5.25593e-32
      3.05261  5.39264e-32
      3.05916  5.53517e-32
      3.06573  5.68191e-32
      3.07231  5.83194e-32
      3.07890  5.98443e-32
      3.08550  6.14126e-32
      3.09212  6.30222e-32
      3.09876  6.46869e-32
      3.10541  6.64130e-32
      3.11207  6.82120e-32
      3.11875  7.00949e-32
      3.12544  7.20546e-32
      3.13214  7.40992e-32
      3.13886  7.62243e-32
      3.14560  7.84271e-32
      3.15235  8.07072e-32
      3.15911  8.30697e-32
      3.16589  8.55063e-32
      3.17268  8.80268e-32
      3.17949  9.06217e-32
      3.18631  9.33109e-32
      3.19315  9.60894e-32
      3.20000  9.89658e-32
      3.20687  1.01930e-31
      3.21375  1.05002e-31
      3.22064  1.08187e-31
      3.22755  1.11485e-31
      3.23448  1.14912e-31
      3.24142  1.18477e-31
      3.24837  1.22179e-31
      3.25534  1.26034e-31
      3.26233  1.30043e-31
      3.26933  1.34217e-31
      3.27634  1.38555e-31
      3.28337  1.43037e-31
      3.29042  1.47678e-31
      3.29748  1.52477e-31
      3.30455  1.57436e-31
      3.31164  1.62538e-31
      3.31875  1.67812e-31
      3.32587  1.73254e-31
      3.33300  1.78871e-31
      3.34016  1.84669e-31
      3.34732  1.90663e-31
      3.35450  1.96863e-31
      3.36170  2.03274e-31
      3.36891  2.09893e-31
      3.37614  2.16729e-31
      3.38339  2.23795e-31
      3.39065  2.31083e-31
      3.39792  2.38582e-31
      3.40521  2.46316e-31
      3.41252  2.54281e-31
      3.41984  2.62486e-31
      3.42718  2.70924e-31
      3.43453  2.79632e-31
      3.44190  2.88615e-31
      3.44928  2.97877e-31
      3.45669  3.07422e-31
      3.46410  3.17278e-31
      3.47154  3.27463e-31
      3.47898  3.37945e-31
      3.48645  3.48650e-31
      3.49393  3.59835e-31
      3.50143  3.71364e-31
      3.50894  3.83288e-31
      3.51647  3.95578e-31
      3.52401  4.08254e-31
      3.53157  4.21328e-31
      3.53915  4.34849e-31
      3.54674  4.48811e-31
      3.55435  4.63243e-31
      3.56198  4.78156e-31
      3.56962  4.93581e-31
      3.57728  5.09565e-31
      3.58496  5.26090e-31
      3.59265  5.43155e-31
      3.60036  5.60838e-31
      3.60808  5.79154e-31
      3.61582  5.98107e-31
      3.62358  6.17685e-31
      3.63136  6.37950e-31
      3.63915  6.58908e-31
      3.64696  6.80595e-31
      3.65478  7.02880e-31
      3.66262  7.26033e-31
      3.67048  7.51513e-31
      3.67836  7.59480e-31
      3.68625  7.71041e-31
      3.69416  7.98114e-31
      3.70209  8.25169e-31
      3.71003  8.52916e-31
      3.71799  8.81497e-31
      3.72597  9.10937e-31
      3.73396  9.41246e-31
      3.74197  9.72418e-31
      3.75000  1.00451e-30
      3.75805  1.03756e-30
      3.76611  1.07149e-30
      3.77419  1.10638e-30
      3.78229  1.14218e-30
      3.79040  1.17897e-30
      3.79854  1.21666e-30
      3.80669  1.25523e-30
      3.81486  1.29477e-30
      3.82304  1.33523e-30
      3.83124  1.37661e-30
      3.83946  1.41873e-30
      3.84770  1.46176e-30
      3.85596  1.50547e-30
      3.86423  1.54976e-30
      3.87252  1.59470e-30
      3.88083  1.64026e-30
      3.88916  1.68651e-30
      3.89750  1.73327e-30
      3.90586  1.78050e-30
      3.91424  1.82812e-30
      3.92264  1.87552e-30
      3.93106  1.92394e-30
      3.93949  1.97228e-30
      3.94795  2.02046e-30
      3.95642  2.06843e-30
      3.96491  2.11609e-30
      3.97341  2.16339e-30
      3.98194  2.21008e-30
      3.99048  2.25595e-30
      3.99904  2.30076e-30
      4.00762  2.34459e-30
      4.01622  2.38703e-30
      4.02484  2.42786e-30
      4.03348  2.46688e-30
      4.04213  2.50370e-30
      4.05080  2.53829e-30
      4.05949  2.57022e-30
      4.06821  2.59923e-30
      4.07693  2.62506e-30
      4.08568  2.64736e-30
      4.09445  2.66592e-30
      4.10323  2.68043e-30
      4.11204  2.69067e-30
      4.12086  2.69597e-30
      4.12970  2.69655e-30
      4.13856  2.69678e-30
      4.14744  2.70675e-30
      4.15634  2.68877e-30
      4.16526  2.66697e-30
      4.17419  2.63797e-30
      4.18315  2.60263e-30
      4.19213  2.56037e-30
      4.20112  2.51130e-30
      4.21013  2.45542e-30
      4.21917  2.39295e-30
      4.22822  2.32364e-30
      4.23729  2.24792e-30
      4.24639  2.16609e-30
      4.25550  2.07805e-30
      4.26463  1.98517e-30
      4.27378  1.88726e-30
      4.28295  1.78499e-30
      4.29214  1.67915e-30
      4.30135  1.57058e-30
      4.31058  1.46053e-30
      4.31982  1.34961e-30
      4.32909  1.23893e-30
      4.33838  1.12951e-30
      4.34769  1.02279e-30
      4.35702  9.19900e-31
      4.36637  8.21436e-31
      4.37573  7.28584e-31
      4.38512  6.42269e-31
      4.39453  5.63038e-31
      4.40396  4.91580e-31
      4.41341  4.28102e-31
      4.42288  3.72664e-31
      4.43237  3.25230e-31
      4.44188  2.85569e-31
      4.45141  2.53290e-31
      4.46096  2.27755e-31
      4.47053  2.08259e-31
      4.48012  1.94078e-31
      4.48974  1.84392e-31
      4.49937  1.78521e-31
      4.50903  1.75671e-31
      4.51870  1.75213e-31
      4.52839  1.76653e-31
      4.53811  1.79519e-31
      4.54785  1.83426e-31
      4.55761  1.88166e-31
      4.56738  1.93413e-31
      4.57718  1.99127e-31
      4.58700  2.05308e-31
      4.59685  2.11673e-31
      4.60671  2.18370e-31
      4.61659  2.25212e-31
      4.62650  2.32188e-31
      4.63643  2.39518e-31
      4.64637  2.47084e-31
      4.65634  2.54851e-31
      4.66633  2.62931e-31
      4.67635  2.71008e-31
      4.68638  2.79452e-31
      4.69644  2.88434e-31
      4.70651  2.97503e-31
      4.71661  3.06963e-31
      4.72673  3.16774e-31
      4.73687  3.26549e-31
      4.74704  3.36954e-31
      4.75722  3.47629e-31
      4.76743  3.58546e-31
      4.77766  3.70115e-31
      4.78791  3.81735e-31
      4.79818  3.93504e-31
      4.80848  4.06104e-31
      4.81879  4.19311e-31
      4.82913  4.32462e-31
      4.83949  4.46841e-31
      4.84988  4.60883e-31
      4.86028  4.74484e-31
      4.87071  4.94888e-31
      4.88116  5.18617e-31
      4.89163  5.33933e-31
      4.90213  5.52298e-31
      4.91265  5.69334e-31
      4.92319  5.87800e-31
      4.93375  6.07649e-31
      4.94434  6.28216e-31
      4.95495  6.49006e-31
      4.96558  6.72001e-31
      4.97623  6.93269e-31
      4.98691  7.16151e-31
      4.99761  7.42252e-31
      5.00833  7.67375e-31
      5.01908  7.93369e-31
      5.02985  8.22061e-31
      5.04064  8.50188e-31
      5.05146  8.78058e-31
      5.06229  9.10348e-31
      5.07316  9.42462e-31
      5.08404  9.74622e-31
      5.09495  1.00980e-30
      5.10588  1.04466e-30
      5.11684  1.08028e-30
      5.12781  1.12163e-30
      5.13882  1.13651e-30
      5.14984  1.15618e-30
      5.16089  1.20240e-30
      5.17197  1.24415e-30
      5.18306  1.28579e-30
      5.19418  1.33403e-30
      5.20533  1.38044e-30
      5.21650  1.42859e-30
      5.22769  1.47909e-30
      5.23891  1.53205e-30
      5.25015  1.58132e-30
      5.26141  1.63565e-30
      5.27270  1.69236e-30
      5.28401  1.74981e-30
      5.29535  1.80856e-30
      5.30671  1.86960e-30
      5.31810  1.92960e-30
      5.32951  1.99070e-30
      5.34095  2.05676e-30
      5.35241  2.12155e-30
      5.36389  2.18758e-30
      5.37540  2.25505e-30
      5.38693  2.32592e-30
      5.39849  2.39326e-30
      5.41007  2.46489e-30
      5.42168  2.53836e-30
      5.43331  2.61106e-30
      5.44497  2.68442e-30
      5.45665  2.76131e-30
      5.46836  2.83436e-30
      5.48009  2.90730e-30
      5.49185  2.98550e-30
      5.50364  3.06142e-30
      5.51545  3.13729e-30
      5.52728  3.21249e-30
      5.53914  3.28898e-30
      5.55102  3.36166e-30
      5.56293  3.43437e-30
      5.57487  3.50835e-30
      5.58683  3.57866e-30
      5.59882  3.64748e-30
      5.61083  3.71540e-30
      5.62287  3.77972e-30
      5.63493  3.83980e-30
      5.64702  3.89802e-30
      5.65914  3.95298e-30
      5.67128  4.00312e-30
      5.68345  4.04865e-30
      5.69565  4.08992e-30
      5.70787  4.12596e-30
      5.72011  4.15500e-30
      5.73239  4.17856e-30
      5.74469  4.19581e-30
      5.75701  4.20495e-30
      5.76937  4.20653e-30
      5.78174  4.20061e-30
      5.79415  4.18520e-30
      5.80658  4.16086e-30
      5.81904  4.12711e-30
      5.83152  4.08389e-30
      5.84403  4.03022e-30
      5.85658  3.96638e-30
      5.86914  3.89225e-30
      5.88173  3.80726e-30
      5.89435  3.71210e-30
      5.90700  3.60610e-30
      5.91968  3.48980e-30
      5.93238  3.36361e-30
      5.94510  3.22839e-30
      5.95786  3.08367e-30
      5.97064  2.93185e-30
      5.98345  2.77325e-30
      5.99629  2.60850e-30
      6.00916  2.43903e-30
      6.02205  2.26714e-30
      6.03497  2.09347e-30
      6.04792  1.91974e-30
      6.06090  1.74687e-30
      6.07390  1.57845e-30
      6.08694  1.41456e-30
      6.10000  1.25668e-30
      6.11308  1.10684e-30
      6.12620  9.66609e-31
      6.13935  8.37034e-31
      6.15252  7.17743e-31
      6.16572  6.13132e-31
      6.17895  5.20859e-31
      6.19221  4.39562e-31
      6.20549  3.70914e-31
      6.21880  3.14618e-31
      6.23215  2.68965e-31
      6.24552  2.32550e-31
      6.25892  2.04039e-31
      6.27235  1.84877e-31
      6.28581  1.70984e-31
      6.29929  1.61144e-31
      6.31281  1.55221e-31
      6.32635  1.53051e-31
      6.33993  1.52900e-31
      6.35353  1.53853e-31
      6.36717  1.53849e-31
      6.38083  1.90929e-31
      6.39452  2.03358e-31
      6.40824  2.06974e-31
      6.42199  2.12706e-31
      6.43577  2.18403e-31
      6.44957  2.24401e-31
      6.46341  2.28924e-31
      6.47728  2.35836e-31
      6.49118  2.44067e-31
      6.50510  2.50397e-31
      6.51906  2.56392e-31
      6.53305  2.64090e-31
      6.54707  2.71441e-31
      6.56112  2.79095e-31
      6.57519  2.86015e-31
      6.58930  2.95343e-31
      6.60344  3.05934e-31
      6.61761  3.13959e-31
      6.63181  3.22303e-31
      6.64604  3.32709e-31
      6.66029  3.43066e-31
      6.67459  3.53627e-31
      6.68891  3.63838e-31
      6.70326  3.74724e-31
      6.71764  3.88660e-31
      6.73205  4.00805e-31
      6.74650  4.12467e-31
      6.76098  4.25859e-31
      6.77548  4.40283e-31
      6.79002  4.52836e-31
      6.80459  4.67620e-31
      6.81919  4.83444e-31
      6.83382  5.00848e-31
      6.84848  5.18139e-31
      6.86318  5.34536e-31
      6.87790  5.51429e-31
      6.89266  5.71309e-31
      6.90745  5.92188e-31
      6.92227  6.11639e-31
      6.93712  6.33404e-31
      6.95201  6.58536e-31
      6.96692  6.78070e-31
      6.98187  7.12667e-31
      6.99685  7.44508e-31
      7.01186  7.69472e-31
      7.02691  8.00418e-31
      7.04198  8.28239e-31
      7.05709  8.55564e-31
      7.07224  8.89896e-31
      7.08741  9.25268e-31
      7.10262  9.59583e-31
      7.11786  9.96410e-31
      7.13313  1.03604e-30
      7.14843  1.07217e-30
      7.16377  1.11249e-30
      7.17914  1.15674e-30
      7.19455  1.20002e-30
      7.20998  1.24721e-30
      7.22545  1.29721e-30
      7.24095  1.34069e-30
      7.25649  1.39217e-30
      7.27206  1.44598e-30
      7.28766  1.50048e-30
      7.30330  1.55551e-30
      7.31897  1.61737e-30
      7.33467  1.67517e-30
      7.35041  1.73592e-30
      7.36618  1.80431e-30
      7.38198  1.86964e-30
      7.39783  1.93811e-30
      7.41370  2.01163e-30
      7.42960  2.08560e-30
      7.44555  2.15531e-30
      7.46152  2.23593e-30
      7.47753  2.31595e-30
      7.49358  2.40347e-30
      7.50965  2.41522e-30
      7.52576  2.51335e-30
      7.54191  2.59776e-30
      7.55810  2.68921e-30
      7.57431  2.78909e-30
      7.59056  2.88680e-30
      7.60685  2.98592e-30
      7.62317  3.09352e-30
      7.63953  3.19916e-30
      7.65592  3.30651e-30
      7.67235  3.42119e-30
      7.68881  3.53655e-30
      7.70531  3.65538e-30
      7.72184  3.77627e-30
      7.73840  3.90414e-30
      7.75501  4.02804e-30
      7.77165  4.15691e-30
      7.78832  4.29290e-30
      7.80503  4.42914e-30
      7.82178  4.56713e-30
      7.83857  4.70916e-30
      7.85538  4.85417e-30
      7.87224  4.99831e-30
      7.88913  5.14772e-30
      7.90605  5.29978e-30
      7.92302  5.45268e-30
      7.94001  5.60779e-30
      7.95705  5.76492e-30
      7.97412  5.92400e-30
      7.99123  6.08156e-30
      8.00838  6.24043e-30
      8.02557  6.40381e-30
      8.04278  6.56467e-30
      8.06004  6.72555e-30
      8.07733  6.88615e-30
      8.09466  7.04618e-30
      8.11203  7.20356e-30
      8.12944  7.35956e-30
      8.14688  7.51344e-30
      8.16436  7.66361e-30
      8.18188  7.80976e-30
      8.19944  7.95252e-30
      8.21703  8.08946e-30
      8.23466  8.22036e-30
      8.25233  8.34514e-30
      8.27003  8.46196e-30
      8.28778  8.57093e-30
      8.30556  8.67037e-30
      8.32338  8.75993e-30
      8.34124  8.83831e-30
      8.35913  8.90560e-30
      8.37707  8.95996e-30
      8.39505  8.99929e-30
      8.41305  9.02515e-30
      8.43111  9.03528e-30
      8.44920  9.02874e-30
      8.46733  9.00434e-30
      8.48549  8.96307e-30
      8.50370  8.90373e-30
      8.52195  8.82395e-30
      8.54023  8.72358e-30
      8.55855  8.60443e-30
      8.57692  8.46522e-30
      8.59532  8.30493e-30
      8.61376  8.12622e-30
      8.63225  7.92946e-30
      8.65076  7.71240e-30
      8.66933  7.47596e-30
      8.68793  7.22446e-30
      8.70657  6.95907e-30
      8.72525  6.68010e-30
      8.74397  6.38854e-30
      8.76273  6.09207e-30
      8.78154  5.79164e-30
      8.80037  5.48828e-30
      8.81926  5.17037e-30
      8.83818  4.85268e-30
      8.85714  4.56371e-30
      8.87615  4.28266e-30
      8.89519  4.01750e-30
      8.91428  3.77233e-30
      8.93341  3.54559e-30
      8.95257  3.33957e-30
      8.97178  3.16103e-30
      8.99103  3.00658e-30
      9.01032  2.88717e-30
      9.02966  2.78891e-30
      9.04903  2.71344e-30
      9.06844  2.66658e-30
      9.08790  2.64283e-30
      9.10740  2.63622e-30
      9.12694  2.65036e-30
      9.14653  2.68126e-30
      9.16615  2.72615e-30
      9.18582  2.78083e-30
      9.20552  2.84680e-30
      9.22528  2.92299e-30
      9.24507  3.00310e-30
      9.26491  3.08601e-30
      9.28479  3.17532e-30
      9.30471  3.26641e-30
      9.32467  3.36060e-30
      9.34468  3.45349e-30
      9.36473  3.54928e-30
      9.38482  3.64852e-30
      9.40496  3.74584e-30
      9.42513  3.84020e-30
      9.44536  3.93779e-30
      9.46562  4.03497e-30
      9.48594  4.13172e-30
      9.50629  4.22544e-30
      9.52669  4.32046e-30
      9.54713  4.41681e-30
      9.56761  4.51107e-30
      9.58814  4.59900e-30
      9.60871  4.68827e-30
      9.62933  4.77482e-30
      9.64999  4.85707e-30
      9.67070  4.93564e-30
      9.69144  5.00864e-30
      9.71224  5.08061e-30
      9.73308  5.14782e-30
      9.75396  5.20748e-30
      9.77489  5.25722e-30
      9.79586  5.30411e-30
      9.81688  5.34469e-30
      9.83794  5.37621e-30
      9.85905  5.39789e-30
      9.88020  5.41370e-30
      9.90140  5.42034e-30
      9.92265  5.41991e-30
      9.94394  5.36134e-30
      9.96528  5.49938e-30
      9.98666  4.57423e-30
      10.0081  3.18609e-30
      10.0296  5.72905e-30
      10.0511  5.10473e-30
      10.0726  5.03529e-30
      10.0943  4.97201e-30
      10.1159  4.85038e-30
      10.1376  4.72827e-30
      10.1594  4.59065e-30
      10.1812  4.44582e-30
      10.2030  4.28969e-30
      10.2249  4.12421e-30
      10.2468  3.95419e-30
      10.2688  3.77700e-30
      10.2909  3.58611e-30
      10.3129  3.39599e-30
      10.3351  3.20840e-30
      10.3572  3.01782e-30
      10.3795  2.82487e-30
      10.4017  2.64488e-30
      10.4241  2.45895e-30
      10.4464  2.28207e-30
      10.4688  2.12743e-30
      10.4913  1.98106e-30
      10.5138  1.85040e-30
      10.5364  1.75349e-30
      10.5590  1.63052e-30
      10.5816  1.57606e-30
      10.6043  1.54583e-30
      10.6271  1.47955e-30
      10.6499  1.44639e-30
      10.6727  1.42441e-30
      10.6956  1.41943e-30
      10.7186  1.41047e-30
      10.7416  1.43849e-30
      10.7646  1.46457e-30
      10.7877  1.49765e-30
      10.8109  1.54671e-30
      10.8341  1.59861e-30
      10.8573  1.64238e-30
      10.8806  1.71309e-30
      10.9040  1.77626e-30
      10.9273  1.84171e-30
      10.9508  1.91015e-30
      10.9743  1.99009e-30
      10.9978  2.06027e-30
      11.0214  2.13420e-30
      11.0451  2.21940e-30
      11.0688  2.31162e-30
      11.0925  2.39069e-30
      11.1163  2.48490e-30
      11.1402  2.57448e-30
      11.1641  2.66241e-30
      11.1880  2.76559e-30
      11.2120  2.86793e-30
      11.2361  2.97060e-30
      11.2602  3.08169e-30
      11.2844  3.19158e-30
      11.3086  3.30555e-30
      11.3328  3.42598e-30
      11.3572  3.54770e-30
      11.3815  3.68160e-30
      11.4060  3.81010e-30
      11.4304  3.94622e-30
      11.4549  4.09223e-30
      11.4795  4.22767e-30
      11.5042  4.37852e-30
      11.5288  4.54084e-30
      11.5536  4.66209e-30
      11.5784  4.74456e-30
      11.6032  4.92360e-30
      11.6281  5.09799e-30
      11.6531  5.27682e-30
      11.6781  5.45863e-30
      11.7031  5.65201e-30
      11.7282  5.84672e-30
      11.7534  6.04821e-30
      11.7786  6.25454e-30
      11.8039  6.46883e-30
      11.8292  6.69195e-30
      11.8546  6.91663e-30
      11.8800  7.14729e-30
      11.9055  7.38791e-30
      11.9311  7.63190e-30
      11.9567  7.88273e-30
      11.9823  8.14202e-30
      12.0080  8.40245e-30
      12.0338  8.67484e-30
      12.0596  8.95145e-30
      12.0855  9.23253e-30
      12.1114  9.51497e-30
      12.1374  9.81187e-30
      12.1634  1.01099e-29
      12.1895  1.04120e-29
      12.2157  1.07250e-29
      12.2419  1.10352e-29
      12.2682  1.13467e-29
      12.2945  1.16735e-29
      12.3209  1.19935e-29
      12.3473  1.23161e-29
      12.3738  1.26495e-29
      12.4003  1.29784e-29
      12.4270  1.33027e-29
      12.4536  1.36333e-29
      12.4803  1.39613e-29
      12.5071  1.42862e-29
      12.5339  1.46091e-29
      12.5608  1.49308e-29
      12.5878  1.52401e-29
      12.6148  1.55513e-29
      12.6419  1.58226e-29
      12.6690  1.61016e-29
      12.6962  1.63820e-29
      12.7234  1.66537e-29
      12.7507  1.69041e-29
      12.7781  1.71416e-29
      12.8055  1.73718e-29
      12.8330  1.75735e-29
      12.8605  1.77563e-29
      12.8881  1.79202e-29
      12.9157  1.80609e-29
      12.9435  1.81696e-29
      12.9712  1.82558e-29
      12.9991  1.83196e-29
      13.0270  1.83482e-29
      13.0549  1.83399e-29
      13.0829  1.83057e-29
      13.1110  1.82329e-29
      13.1391  1.81231e-29
      13.1673  1.79809e-29
      13.1956  1.77986e-29
      13.2239  1.75836e-29
      13.2522  1.73294e-29
      13.2807  1.70348e-29
      13.3092  1.67050e-29
      13.3377  1.63407e-29
      13.3664  1.59538e-29
      13.3950  1.55238e-29
      13.4238  1.50772e-29
      13.4526  1.45997e-29
      13.4814  1.41044e-29
      13.5104  1.35866e-29
      13.5394  1.30648e-29
      13.5684  1.25401e-29
      13.5975  1.20153e-29
      13.6267  1.14909e-29
      13.6559  1.09792e-29
      13.6852  1.04957e-29
      13.7146  1.00305e-29
      13.7440  9.59121e-30
      13.7735  9.18230e-30
      13.8031  8.81892e-30
      13.8327  8.48988e-30
      13.8624  8.19839e-30
      13.8921  7.94800e-30
      13.9219  7.74153e-30
      13.9518  7.56668e-30
      13.9817  7.42838e-30
      14.0117  7.31726e-30
      14.0418  7.23340e-30
      14.0719  7.17370e-30
      14.1021  7.12284e-30
      14.1324  7.08053e-30
      14.1627  7.04915e-30
      14.1931  7.02018e-30
      14.2235  6.98003e-30
      14.2540  6.93393e-30
      14.2846  6.87704e-30
      14.3153  6.81507e-30
      14.3460  6.73508e-30
      14.3768  6.63227e-30
      14.4076  6.52182e-30
      14.4385  6.40090e-30
      14.4695  6.25243e-30
      14.5005  6.08807e-30
      14.5317  5.90715e-30
      14.5628  5.71334e-30
      14.5941  5.50542e-30
      14.6254  5.27475e-30
      14.6568  5.03872e-30
      14.6882  4.78924e-30
      14.7197  4.53232e-30
      14.7513  4.26456e-30
      14.7830  3.98489e-30
      14.8147  3.71018e-30
      14.8465  3.43091e-30
      14.8783  3.14773e-30
      14.9103  2.87453e-30
      14.9422  2.60694e-30
      14.9743  2.35397e-30
      15.0064  2.10983e-30
      15.0386  1.88182e-30
      15.0709  1.66314e-30
      15.1032  1.46677e-30
      15.1356  1.29473e-30
      15.1681  1.13931e-30
      15.2007  1.00495e-30
      15.2333  8.88659e-31
      15.2660  7.96187e-31
      15.2987  7.27653e-31
      15.3315  6.73685e-31
      15.3644  6.27997e-31
      15.3974  6.15597e-31
      15.4304  6.02618e-31
      15.4635  5.94609e-31
      15.4967  6.01083e-31
      15.5300  6.15139e-31
      15.5633  6.33998e-31
      15.5967  6.64566e-31
      15.6302  6.80749e-31
      15.6637  7.03073e-31
      15.6973  7.46488e-31
      15.7310  7.71721e-31
      15.7647  8.10012e-31
      15.7986  8.54841e-31
      15.8325  8.94641e-31
      15.8664  9.28893e-31
      15.9005  9.78763e-31
      15.9346  1.03344e-30
      15.9688  1.07788e-30
      16.0030  1.13746e-30
      16.0374  1.19387e-30
      16.0718  1.23999e-30
      16.1063  1.30317e-30
      16.1408  1.36766e-30
      16.1755  1.42894e-30
      16.2102  1.51332e-30
      16.2449  1.57520e-30
      16.2798  1.63474e-30
      16.3147  1.69446e-30
      16.3497  1.76974e-30
      16.3848  1.85054e-30
      16.4200  1.93083e-30
      16.4552  2.02306e-30
      16.4905  2.10364e-30
      16.5259  2.18119e-30
      16.5613  2.28556e-30
      16.5969  2.37780e-30
      16.6325  2.48234e-30
      16.6682  2.59375e-30
      16.7039  2.67750e-30
      16.7398  2.77855e-30
      16.7757  2.90749e-30
      16.8117  3.00662e-30
      16.8478  3.11942e-30
      16.8839  3.23481e-30
      16.9201  3.35926e-30
      16.9564  3.49015e-30
      16.9928  3.61731e-30
      17.0293  3.76920e-30
      17.0658  3.89277e-30
      17.1024  4.02651e-30
      17.1391  4.16978e-30
      17.1759  4.30992e-30
      17.2128  4.44647e-30
      17.2497  4.60789e-30
      17.2867  4.76641e-30
      17.3238  4.91453e-30
      17.3610  5.06822e-30
      17.3982  5.23935e-30
      17.4355  5.39095e-30
      17.4730  5.55339e-30
      17.5104  5.73045e-30
      17.5480  5.89873e-30
      17.5857  6.06760e-30
      17.6234  6.25059e-30
      17.6612  6.43505e-30
      17.6991  6.60180e-30
      17.7371  6.79241e-30
      17.7751  6.97213e-30
      17.8133  7.14940e-30
      17.8515  7.33883e-30
      17.8898  7.52416e-30
      17.9282  7.71761e-30
      17.9667  7.89681e-30
      18.0052  8.08720e-30
      18.0438  8.26789e-30
      18.0826  8.45275e-30
      18.1213  8.63756e-30
      18.1602  8.81946e-30
      18.1992  8.99860e-30
      18.2382  9.17523e-30
      18.2774  9.34782e-30
      18.3166  9.51529e-30
      18.3559  9.68970e-30
      18.3953  9.85091e-30
      18.4347  1.00090e-29
      18.4743  1.01659e-29
      18.5139  1.03184e-29
      18.5537  1.04598e-29
      18.5935  1.06027e-29
      18.6334  1.07436e-29
      18.6733  1.08774e-29
      18.7134  1.10051e-29
      18.7536  1.11366e-29
      18.7938  1.12575e-29
      18.8341  1.13765e-29
      18.8745  1.14992e-29
      18.9150  1.16192e-29
      18.9556  1.17406e-29
      18.9963  1.18616e-29
      19.0370  1.19862e-29
      19.0779  1.20644e-29
      19.1188  1.22308e-29
      19.1598  1.22198e-29
      19.2010  1.23671e-29
      19.2422  1.25385e-29
      19.2834  1.27282e-29
      19.3248  1.29289e-29
      19.3663  1.31542e-29
      19.4078  1.34114e-29
      19.4495  1.36645e-29
      19.4912  1.40216e-29
      19.5330  1.43738e-29
      19.5749  1.47137e-29
      19.6169  1.50894e-29
      19.6590  1.54814e-29
      19.7012  1.59110e-29
      19.7435  1.63651e-29
      19.7858  1.68325e-29
      19.8283  1.73278e-29
      19.8708  1.78440e-29
      19.9135  1.83824e-29
      19.9562  1.89258e-29
      19.9990  1.94963e-29
      20.0419  2.00890e-29
      20.0849  2.06863e-29
      20.1280  2.12901e-29
      20.1712  2.19075e-29
      20.2145  2.25317e-29
      20.2579  2.31718e-29
      20.3013  2.37998e-29
      20.3449  2.44468e-29
      20.3885  2.51054e-29
      20.4323  2.57569e-29
      20.4761  2.64021e-29
      20.5200  2.70584e-29
      20.5641  2.77068e-29
      20.6082  2.83502e-29
      20.6524  2.89777e-29
      20.6967  2.96122e-29
      20.7411  3.02469e-29
      20.7856  3.08446e-29
      20.8302  3.14281e-29
      20.8749  3.20010e-29
      20.9197  3.25531e-29
      20.9646  3.30765e-29
      21.0096  3.35639e-29
      21.0547  3.40303e-29
      21.0998  3.44761e-29
      21.1451  3.48674e-29
      21.1905  3.52100e-29
      21.2360  3.55136e-29
      21.2815  3.57631e-29
      21.3272  3.59546e-29
      21.3729  3.60838e-29
      21.4188  3.61607e-29
      21.4648  3.61822e-29
      21.5108  3.61007e-29
      21.5570  3.59593e-29
      21.6032  3.57601e-29
      21.6496  3.54590e-29
      21.6960  3.50763e-29
      21.7426  3.46107e-29
      21.7892  3.40483e-29
      21.8360  3.34045e-29
      21.8828  3.26721e-29
      21.9298  3.18433e-29
      21.9768  3.09225e-29
      22.0240  2.99188e-29
      22.0712  2.88338e-29
      22.1186  2.76696e-29
      22.1660  2.64241e-29
      22.2136  2.51174e-29
      22.2613  2.37635e-29
      22.3090  2.23577e-29
      22.3569  2.08975e-29
      22.4049  1.94191e-29
      22.4530  1.79302e-29
      22.5011  1.64407e-29
      22.5494  1.49556e-29
      22.5978  1.35112e-29
      22.6463  1.21129e-29
      22.6949  1.07670e-29
      22.7436  9.48970e-30
      22.7924  8.28484e-30
      22.8413  7.17885e-30
      22.8903  6.17219e-30
      22.9394  5.26781e-30
      22.9886  4.45401e-30
      23.0379  3.76379e-30
      23.0874  3.18519e-30
      23.1369  2.68823e-30
      23.1865  2.27726e-30
      23.2363  1.96470e-30
      23.2861  1.71523e-30
      23.3361  1.53354e-30
      23.3862  1.40382e-30
      23.4363  1.31705e-30
      23.4866  1.27634e-30
      23.5370  1.26374e-30
      23.5875  1.25945e-30
      23.6381  1.27317e-30
      23.6889  1.29623e-30
      23.7397  1.33435e-30
      23.7906  1.37442e-30
      23.8417  1.41852e-30
      23.8928  1.46313e-30
      23.9441  1.51563e-30
      23.9955  1.57420e-30
      24.0469  1.63313e-30
      24.0985  1.68321e-30
      24.1502  1.74258e-30
      24.2021  1.77296e-30
      24.2540  1.83279e-30
      24.3060  1.89597e-30
      24.3582  1.96466e-30
      24.4104  2.02825e-30
      24.4628  2.09571e-30
      24.5153  2.16544e-30
      24.5679  2.23976e-30
      24.6206  2.31454e-30
      24.6734  2.38612e-30
      24.7264  2.46814e-30
      24.7794  2.55355e-30
      24.8326  2.63624e-30
      24.8859  2.72306e-30
      24.9393  2.81106e-30
      24.9928  2.89332e-30
      25.0464  2.98983e-30
      25.1002  3.08431e-30
      25.1540  3.17486e-30
      25.2080  3.27652e-30
      25.2621  3.38312e-30
      25.3163  3.47696e-30
      25.3706  3.58889e-30
      25.4250  3.69388e-30
      25.4796  3.80068e-30
      25.5343  3.92070e-30
      25.5890  4.03060e-30
      25.6439  4.13681e-30
      25.6990  4.26798e-30
      25.7541  4.39623e-30
      25.8093  4.51158e-30
      25.8647  4.64017e-30
      25.9202  4.76500e-30
      25.9759  4.88636e-30
      26.0316  5.03132e-30
      26.0874  5.16647e-30
      26.1434  5.28401e-30
      26.1995  5.43345e-30
      26.2557  5.56441e-30
      26.3120  5.68730e-30
      26.3685  5.81671e-30
      26.4251  5.95368e-30
      26.4818  6.07899e-30
      26.5386  6.22626e-30
      26.5955  6.33515e-30
      26.6526  6.44118e-30
      26.7098  6.57415e-30
      26.7671  6.69460e-30
      26.8245  6.77378e-30
      26.8821  6.88781e-30
      26.9398  6.99165e-30
      26.9976  7.04311e-30
      27.0555  7.13236e-30
      27.1135  7.20689e-30
      27.1717  7.26076e-30
      27.2300  7.29394e-30
      27.2884  7.36546e-30
      27.3470  7.35024e-30
      27.4057  7.35758e-30
      27.4645  7.38780e-30
      27.5234  7.36225e-30
      27.5824  7.32535e-30
      27.6416  7.31888e-30
      27.7009  7.25426e-30
      27.7604  7.16042e-30
      27.8199  7.09508e-30
      27.8796  6.98942e-30
      27.9395  6.87833e-30
      27.9994  6.75327e-30
      28.0595  6.64917e-30
      28.1197  6.48919e-30
      28.1800  6.33675e-30
      28.2405  6.21305e-30
      28.3011  6.07300e-30
      28.3618  5.90983e-30
      28.4227  5.78275e-30
      28.4836  5.63252e-30
      28.5447  5.48123e-30
      28.6060  5.36797e-30
      28.6674  5.24589e-30
      28.7289  5.13891e-30
      28.7905  5.04292e-30
      28.8523  4.99199e-30
      28.9142  4.91697e-30
      28.9762  4.87860e-30
      29.0384  4.88660e-30
      29.1007  4.89418e-30
      29.1631  4.92353e-30
      29.2257  4.98031e-30
      29.2884  5.06902e-30
      29.3513  5.14411e-30
      29.4142  5.25595e-30
      29.4774  5.38791e-30
      29.5406  5.52597e-30
      29.6040  5.67273e-30
      29.6675  5.83535e-30
      29.7312  6.00427e-30
      29.7950  6.17778e-30
      29.8589  6.35701e-30
      29.9229  6.54656e-30
      29.9871  6.73888e-30
      30.0515  6.93888e-30
      30.1160  7.16733e-30
      30.1806  7.36726e-30
      30.2453  7.56896e-30
      30.3102  7.78340e-30
      30.3753  7.99472e-30
      30.4404  8.20925e-30
      30.5058  8.41886e-30
      30.5712  8.64635e-30
      30.6368  8.86317e-30
      30.7025  9.08070e-30
      30.7684  9.23989e-30
      30.8344  9.47063e-30
      30.9006  9.69668e-30
      30.9669  9.92180e-30
      31.0333  1.01421e-29
      31.0999  1.03652e-29
      31.1667  1.05921e-29
      31.2335  1.08152e-29
      31.3005  1.10311e-29
      31.3677  1.12499e-29
      31.4350  1.14710e-29
      31.5024  1.16892e-29
      31.5700  1.18947e-29
      31.6378  1.21137e-29
      31.7056  1.23207e-29
      31.7737  1.25230e-29
      31.8419  1.27171e-29
      31.9102  1.29138e-29
      31.9786  1.31129e-29
      32.0473  1.33015e-29
      32.1160  1.34885e-29
      32.1849  1.36843e-29
      32.2540  1.38648e-29
      32.3232  1.40372e-29
      32.3926  1.42199e-29
      32.4620  1.44024e-29
      32.5317  1.45883e-29
      32.6015  1.47684e-29
      32.6715  1.49702e-29
      32.7415  1.51687e-29
      32.8118  1.53608e-29
      32.8822  1.55636e-29
      32.9528  1.57856e-29
      33.0235  1.60176e-29
      33.0943  1.62487e-29
      33.1653  1.64931e-29
      33.2365  1.67715e-29
      33.3078  1.70494e-29
      33.3793  1.73321e-29
      33.4509  1.76338e-29
      33.5226  1.79490e-29
      33.5946  1.82785e-29
      33.6667  1.85963e-29
      33.7389  1.89363e-29
      33.8113  1.92934e-29
      33.8838  1.96461e-29
      33.9565  1.99907e-29
      34.0294  2.03313e-29
      34.1024  2.06659e-29
      34.1756  2.10039e-29
      34.2489  2.13260e-29
      34.3224  2.16324e-29
      34.3960  2.19496e-29
      34.4698  2.22289e-29
      34.5438  2.24794e-29
      34.6179  2.27236e-29
      34.6922  2.29538e-29
      34.7666  2.31673e-29
      34.8412  2.33302e-29
      34.9160  2.34952e-29
      34.9909  2.36404e-29
      35.0660  2.37485e-29
      35.1412  2.38197e-29
      35.2166  2.39047e-29
      35.2922  2.37687e-29
      35.3679  2.37132e-29
      35.4437  2.36962e-29
      35.5198  2.36732e-29
      35.5960  2.36555e-29
      35.6724  2.36102e-29
      35.7490  2.35296e-29
      35.8256  2.34685e-29
      35.9025  2.34017e-29
      35.9795  2.33410e-29
      36.0567  2.32899e-29
      36.1341  2.32490e-29
      36.2116  2.32431e-29
      36.2893  2.32649e-29
      36.3672  2.33041e-29
      36.4452  2.33989e-29
      36.5234  2.35193e-29
      36.6018  2.36974e-29
      36.6803  2.39221e-29
      36.7590  2.41944e-29
      36.8379  2.45283e-29
      36.9169  2.49366e-29
      36.9961  2.53698e-29
      37.0755  2.58541e-29
      37.1551  2.64012e-29
      37.2348  2.69956e-29
      37.3147  2.76301e-29
      37.3947  2.82949e-29
      37.4750  2.90020e-29
      37.5554  2.97403e-29
      37.6360  3.04873e-29
      37.7167  3.12643e-29
      37.7977  3.20332e-29
      37.8787  3.28241e-29
      37.9600  3.36169e-29
      38.0415  3.44120e-29
      38.1231  3.51962e-29
      38.2049  3.59532e-29
      38.2869  3.67198e-29
      38.3690  3.74785e-29
      38.4513  3.82139e-29
      38.5338  3.89310e-29
      38.6165  3.96305e-29
      38.6994  4.03044e-29
      38.7824  4.09374e-29
      38.8656  4.15400e-29
      38.9490  4.21112e-29
      39.0326  4.26430e-29
      39.1163  4.31219e-29
      39.2002  4.35426e-29
      39.2844  4.39005e-29
      39.3686  4.42121e-29
      39.4531  4.44533e-29
      39.5378  4.46255e-29
      39.6226  4.47145e-29
      39.7076  4.47362e-29
      39.7928  4.46716e-29
      39.8782  4.45231e-29
      39.9638  4.42808e-29
      40.0495  4.39353e-29
      40.1354  4.35014e-29
      40.2215  4.29700e-29
      40.3078  4.23342e-29
      40.3943  4.16021e-29
      40.4810  4.07735e-29
      40.5679  3.98384e-29
      40.6549  3.88251e-29
      40.7421  3.77066e-29
      40.8295  3.65000e-29
      40.9171  3.52202e-29
      41.0049  3.38661e-29
      41.0929  3.24460e-29
      41.1811  3.09813e-29
      41.2695  2.94815e-29
      41.3580  2.79589e-29
      41.4468  2.64239e-29
      41.5357  2.48910e-29
      41.6248  2.33756e-29
      41.7141  2.19099e-29
      41.8036  2.04936e-29
      41.8933  1.91444e-29
      41.9832  1.78666e-29
      42.0733  1.67505e-29
      42.1635  1.57394e-29
      42.2540  1.47576e-29
      42.3447  1.39104e-29
      42.4355  1.31573e-29
      42.5266  1.25179e-29
      42.6178  1.19864e-29
      42.7092  1.15337e-29
      42.8009  1.11790e-29
      42.8927  1.08960e-29
      42.9848  1.06704e-29
      43.0770  1.05000e-29
      43.1694  1.03600e-29
      43.2620  1.02320e-29
      43.3549  1.01222e-29
      43.4479  1.00263e-29
      43.5411  9.92347e-30
      43.6345  9.81758e-30
      43.7282  9.71109e-30
      43.8220  9.57280e-30
      43.9160  9.42203e-30
      44.0102  9.26345e-30
      44.1047  9.08612e-30
      44.1993  8.89205e-30
      44.2941  8.68881e-30
      44.3891  8.45975e-30
      44.4844  8.21058e-30
      44.5799  7.97901e-30
      44.6755  7.72264e-30
      44.7714  7.46843e-30
      44.8674  7.20967e-30
      44.9637  6.96695e-30
      45.0601  6.71699e-30
      45.1568  6.47017e-30
      45.2537  6.25739e-30
      45.3508  6.05202e-30
      45.4481  5.86127e-30
      45.5457  5.70722e-30
      45.6434  5.55944e-30
      45.7413  5.43783e-30
      45.8394  5.35753e-30
      45.9378  5.29023e-30
      46.0363  5.25003e-30
      46.1351  5.24135e-30
      46.2341  5.26048e-30
      46.3333  5.29001e-30
      46.4328  5.34956e-30
      46.5324  5.41842e-30
      46.6322  5.50987e-30
      46.7323  5.61436e-30
      46.8325  5.72372e-30
      46.9330  5.85326e-30
      47.0337  5.96508e-30
      47.1346  6.07435e-30
      47.2358  6.19893e-30
      47.3371  6.34102e-30
      47.4387  6.47272e-30
      47.5405  6.60153e-30
      47.6425  6.74484e-30
      47.7447  6.84608e-30
      47.8471  6.96145e-30
      47.9498  7.10138e-30
      48.0527  7.21582e-30
      48.1558  7.32332e-30
      48.2591  7.46152e-30
      48.3627  7.52380e-30
      48.4664  7.61164e-30
      48.5704  7.73275e-30
      48.6746  7.81270e-30
      48.7790  7.89295e-30
      48.8837  7.97823e-30
      48.9886  8.02638e-30
      49.0937  8.05509e-30
      49.1990  8.12258e-30
      49.3046  8.15569e-30
      49.4104  8.16780e-30
      49.5164  8.22095e-30
      49.6226  8.21305e-30
      49.7291  8.15876e-30
      49.8358  8.18002e-30
      49.9428  8.14165e-30
      50.0499  8.10006e-30
      50.1573  8.05323e-30
      50.2649  8.02754e-30
      50.3727  7.91543e-30
      50.4808  7.86460e-30
      50.5891  7.80502e-30
      50.6977  7.71472e-30
      50.8065  7.66096e-30
      50.9155  7.60172e-30
      51.0247  7.49309e-30
      51.1342  7.40981e-30
      51.2439  7.38016e-30
      51.3539  7.30697e-30
      51.4641  7.25545e-30
      51.5745  7.24157e-30
      51.6852  7.22401e-30
      51.7960  7.15612e-30
      51.9072  7.18759e-30
      52.0186  7.24008e-30
      52.1301  7.27596e-30
      52.2420  7.32338e-30
      52.3541  7.43128e-30
      52.4664  7.46596e-30
      52.5790  7.53440e-30
      52.6918  7.67425e-30
      52.8049  7.76398e-30
      52.9182  7.88410e-30
      53.0317  7.99582e-30
      53.1455  8.12714e-30
      53.2595  8.21104e-30
      53.3738  8.32507e-30
      53.4883  8.46046e-30
      53.6031  8.56706e-30
      53.7181  8.66825e-30
      53.8334  8.78401e-30
      53.9489  8.87041e-30
      54.0646  8.92900e-30
      54.1806  9.03626e-30
      54.2969  9.12333e-30
      54.4134  9.19519e-30
      54.5301  9.17653e-30
      54.6471  9.27585e-30
      54.7644  9.34874e-30
      54.8819  9.40441e-30
      54.9996  9.49249e-30
      55.1176  9.58926e-30
      55.2359  9.67480e-30
      55.3544  9.75195e-30
      55.4732  9.86536e-30
      55.5922  9.97306e-30
      55.7115  1.01004e-29
      55.8310  1.02394e-29
      55.9508  1.04022e-29
      56.0709  1.05581e-29
      56.1912  1.07586e-29
      56.3117  1.09655e-29
      56.4326  1.11963e-29
      56.5536  1.14247e-29
      56.6750  1.16995e-29
      56.7966  1.19748e-29
      56.9185  1.22637e-29
      57.0406  1.26039e-29
      57.1630  1.29242e-29
      57.2856  1.32499e-29
      57.4085  1.36100e-29
      57.5317  1.39699e-29
      57.6551  1.43336e-29
      57.7788  1.47100e-29
      57.9028  1.50941e-29
      58.0271  1.54794e-29
      58.1516  1.58597e-29
      58.2763  1.62791e-29
      58.4013  1.66691e-29
      58.5267  1.70486e-29
      58.6522  1.74472e-29
      58.7781  1.78355e-29
      58.9042  1.82203e-29
      59.0306  1.85809e-29
      59.1573  1.89692e-29
      59.2842  1.93525e-29
      59.4114  1.96829e-29
      59.5388  2.00275e-29
      59.6666  2.03607e-29
      59.7946  2.06765e-29
      59.9229  2.09738e-29
      60.0515  2.12394e-29
      60.1803  2.15223e-29
      60.3095  2.17584e-29
      60.4389  2.19457e-29
      60.5685  2.21168e-29
      60.6985  2.22649e-29
      60.8287  2.23907e-29
      60.9592  2.24457e-29
      61.0900  2.25026e-29
      61.2211  2.25172e-29
      61.3525  2.24878e-29
      61.4841  2.23821e-29
      61.6160  2.22783e-29
      61.7482  2.21290e-29
      61.8807  2.18876e-29
      62.0135  2.15825e-29
      62.1465  2.12627e-29
      62.2799  2.09056e-29
      62.4135  2.04624e-29
      62.5474  1.99630e-29
      62.6816  1.94353e-29
      62.8161  1.88511e-29
      62.9509  1.82154e-29
      63.0860  1.75388e-29
      63.2213  1.68581e-29
      63.3570  1.61488e-29
      63.4929  1.53739e-29
      63.6292  1.45791e-29
      63.7657  1.38069e-29
      63.9025  1.30231e-29
      64.0396  1.22255e-29
      64.1770  1.14323e-29
      64.3147  1.06967e-29
      64.4527  1.00029e-29
      64.5910  9.29964e-30
      64.7296  8.65610e-30
      64.8685  8.06855e-30
      65.0076  7.55238e-30
      65.1471  7.08667e-30
      65.2869  6.68599e-30
      65.4270  6.36967e-30
      65.5673  6.13675e-30
      65.7080  5.94122e-30
      65.8490  5.80301e-30
      65.9903  5.72575e-30
      66.1319  5.68794e-30
      66.2738  5.72649e-30
      66.4160  5.78058e-30
      66.5585  5.89192e-30
      66.7013  6.06269e-30
      66.8444  6.23575e-30
      66.9878  6.40590e-30
      67.1316  6.59820e-30
      67.2756  6.82240e-30
      67.4200  7.06117e-30
      67.5646  7.29086e-30
      67.7096  7.52041e-30
      67.8549  7.80885e-30
      68.0005  8.08965e-30
      68.1463  8.35343e-30
      68.2925  8.60013e-30
      68.4391  8.90211e-30
      68.5860  9.20836e-30
      68.7331  9.49973e-30
      68.8806  9.78338e-30
      69.0284  1.01120e-29
      69.1765  1.04531e-29
      69.3249  1.07885e-29
      69.4736  1.11029e-29
      69.6227  1.14276e-29
      69.7721  1.17875e-29
      69.9218  1.21396e-29
      70.0718  1.24879e-29
      70.2222  1.28300e-29
      70.3728  1.32099e-29
      70.5238  1.36009e-29
      70.6751  1.39771e-29
      70.8268  1.43330e-29
      70.9787  1.47173e-29
      71.1311  1.51042e-29
      71.2837  1.54924e-29
      71.4366  1.58651e-29
      71.5899  1.62481e-29
      71.7435  1.66563e-29
      71.8974  1.70553e-29
      72.0517  1.74443e-29
      72.2063  1.78368e-29
      72.3612  1.82137e-29
      72.5165  1.85984e-29
      72.6721  1.89651e-29
      72.8280  1.93285e-29
      72.9842  1.96734e-29
      73.1408  2.00297e-29
      73.2978  2.03807e-29
      73.4550  2.07093e-29
      73.6126  2.10067e-29
      73.7706  2.12992e-29
      73.9289  2.15960e-29
      74.0875  2.18762e-29
      74.2465  2.21303e-29
      74.4058  2.23768e-29
      74.5654  2.25966e-29
      74.7254  2.27846e-29
      74.8857  2.29689e-29
      75.0464  2.31423e-29
      75.2075  2.32775e-29
      75.3688  2.33968e-29
      75.5305  2.34972e-29
      75.6926  2.35540e-29
      75.8550  2.36164e-29
      76.0177  2.36518e-29
      76.1808  2.35448e-29
      76.3443  2.32621e-29
      76.5081  2.32811e-29
      76.6723  2.32318e-29
      76.8368  2.31794e-29
      77.0016  2.31412e-29
      77.1668  2.30831e-29
      77.3324  2.30279e-29
      77.4983  2.29920e-29
      77.6646  2.29440e-29
      77.8312  2.29168e-29
      77.9983  2.29306e-29
      78.1656  2.29481e-29
      78.3333  2.29920e-29
      78.5014  2.30984e-29
      78.6698  2.32017e-29
      78.8386  2.33409e-29
      79.0078  2.35526e-29
      79.1773  2.37918e-29
      79.3472  2.40692e-29
      79.5175  2.43843e-29
      79.6880  2.47607e-29
      79.8590  2.51295e-29
      80.0304  2.55642e-29
      80.2021  2.59166e-29
      80.3741  2.64628e-29
      80.5466  2.69626e-29
      80.7194  2.74713e-29
      80.8926  2.79760e-29
      81.0662  2.84717e-29
      81.2401  2.89845e-29
      81.4145  2.94960e-29
      81.5891  2.99916e-29
      81.7642  3.04750e-29
      81.9396  3.09536e-29
      82.1154  3.14008e-29
      82.2916  3.18128e-29
      82.4681  3.22291e-29
      82.6451  3.26166e-29
      82.8225  3.29785e-29
      83.0001  3.33072e-29
      83.1782  3.36079e-29
      83.3567  3.38616e-29
      83.5355  3.40847e-29
      83.7148  3.42762e-29
      83.8944  3.44102e-29
      84.0744  3.45071e-29
      84.2548  3.45606e-29
      84.4356  3.45724e-29
      84.6168  3.45191e-29
      84.7983  3.44203e-29
      84.9802  3.42789e-29
      85.1626  3.40788e-29
      85.3453  3.38251e-29
      85.5284  3.35201e-29
      85.7120  3.31594e-29
      85.8959  3.27455e-29
      86.0802  3.22773e-29
      86.2649  3.17575e-29
      86.4499  3.11932e-29
      86.6354  3.05777e-29
      86.8213  2.99231e-29
      87.0075  2.92168e-29
      87.1942  2.84760e-29
      87.3814  2.77055e-29
      87.5689  2.69003e-29
      87.7568  2.60602e-29
      87.9450  2.51979e-29
      88.1337  2.43087e-29
      88.3228  2.34033e-29
      88.5123  2.24888e-29
      88.7022  2.15569e-29
      88.8925  2.06150e-29
      89.0833  1.96801e-29
      89.2744  1.87343e-29
      89.4660  1.77973e-29
      89.6579  1.68701e-29
      89.8503  1.59600e-29
      90.0431  1.50717e-29
      90.2363  1.42023e-29
      90.4299  1.33589e-29
      90.6240  1.25410e-29
      90.8184  1.17698e-29
      91.0132  1.10336e-29
      91.2085  1.03423e-29
      91.4042  9.70565e-30
      91.6003  9.10940e-30
      91.7969  8.53940e-30
      91.9938  8.03999e-30
      92.1912  7.57604e-30
      92.3890  7.14943e-30
      92.5873  6.75968e-30
      92.7859  6.40453e-30
      92.9850  6.06961e-30
      93.1845  5.76858e-30
      93.3844  5.48217e-30
      93.5848  5.21389e-30
      93.7856  4.96886e-30
      93.9868  4.73245e-30
      94.1885  4.50201e-30
      94.3906  4.29282e-30
      94.5931  4.09700e-30
      94.7961  3.89291e-30
      94.9995  3.70467e-30
      95.2032  3.53339e-30
      95.4075  3.35208e-30
      95.6122  3.16755e-30
      95.8174  3.00979e-30
      96.0230  2.85292e-30
      96.2290  2.69775e-30
      96.4355  2.53179e-30
      96.6424  2.38868e-30
      96.8497  2.23151e-30
      97.0575  2.08370e-30
      97.2658  1.94151e-30
      97.4744  1.80932e-30
      97.6837  1.69301e-30
      97.8932  1.58959e-30
      98.1033  1.46327e-30
      98.3138  1.36205e-30
      98.5247  1.28510e-30
      98.7361  1.21171e-30
      98.9480  1.14410e-30
      99.1602  1.09493e-30
      99.3730  1.06813e-30
      99.5863  1.03391e-30
      99.7999  1.01401e-30
      100.014  1.00511e-30
      100.229  1.01492e-30
      100.444  1.01879e-30
      100.659  1.02284e-30
      100.875  1.03465e-30
      101.092  1.06503e-30
      101.308  1.07308e-30
      101.526  1.11054e-30
      101.744  1.13275e-30
      101.962  1.15175e-30
      102.181  1.18093e-30
      102.400  1.22228e-30
      102.620  1.24167e-30
      102.840  1.30346e-30
      103.061  1.31461e-30
      103.282  1.35094e-30
      103.503  1.37522e-30
      103.725  1.42622e-30
      103.948  1.48530e-30
      104.171  1.52902e-30
      104.394  1.53777e-30
      104.618  1.64153e-30
      104.843  1.67029e-30
      105.068  1.74096e-30
      105.293  1.82621e-30
      105.519  1.88514e-30
      105.746  2.04175e-30
      105.973  2.03583e-30
      106.200  2.07314e-30
      106.428  2.27105e-30
      106.656  2.44137e-30
      106.885  2.64402e-30
      107.114  2.86768e-30
      107.344  2.85592e-30
      107.574  3.02454e-30
      107.805  3.15568e-30
      108.037  3.47016e-30
      108.268  3.61667e-30
      108.501  3.92006e-30
      108.733  4.04946e-30
      108.967  4.26993e-30
      109.201  4.66922e-30
      109.435  4.79844e-30
      109.670  5.07887e-30
      109.905  5.65295e-30
      110.141  5.92044e-30
      110.377  6.05542e-30
      110.614  6.56627e-30
      110.851  6.95555e-30
      111.089  7.39156e-30
      111.328  7.59160e-30
      111.566  8.12361e-30
      111.806  8.39008e-30
      112.046  8.67340e-30
      112.286  9.24906e-30
      112.527  9.70041e-30
      112.768  1.01642e-29
      113.010  1.07179e-29
      113.253  1.11732e-29
      113.496  1.15296e-29
      113.739  1.19956e-29
      113.983  1.25906e-29
      114.228  1.30226e-29
      114.473  1.36234e-29
      114.719  1.42406e-29
      114.965  1.46989e-29
      115.211  1.52169e-29
      115.459  1.58586e-29
      115.706  1.64020e-29
      115.955  1.70168e-29
      116.203  1.75706e-29
      116.453  1.83579e-29
      116.703  1.86130e-29
      116.953  1.93677e-29
      117.204  2.00740e-29
      117.455  2.05514e-29
      117.707  2.12306e-29
      117.960  2.19106e-29
      118.213  2.25562e-29
      118.467  2.31321e-29
      118.721  2.37063e-29
      118.976  2.45449e-29
      119.231  2.50552e-29
      119.487  2.57757e-29
      119.743  2.63701e-29
      120.000  2.70300e-29
      120.258  2.77460e-29
      120.516  2.83994e-29
      120.774  2.90916e-29
      121.033  2.95992e-29
      121.293  3.01716e-29
      121.553  3.07660e-29
      121.814  3.13347e-29
      122.075  3.18331e-29
      122.337  3.23085e-29
      122.600  3.28571e-29
      122.863  3.32874e-29
      123.126  3.37153e-29
      123.391  3.41173e-29
      123.655  3.44759e-29
      123.921  3.47605e-29
      124.187  3.49953e-29
      124.453  3.52286e-29
      124.720  3.53955e-29
      124.988  3.55035e-29
      125.256  3.55401e-29
      125.525  3.55492e-29
      125.794  3.54645e-29
      126.064  3.53224e-29
      126.334  3.51040e-29
      126.605  3.47998e-29
      126.877  3.44333e-29
      127.149  3.40219e-29
      127.422  3.34861e-29
      127.695  3.28839e-29
      127.969  3.22305e-29
      128.244  3.14957e-29
      128.519  3.06474e-29
      128.795  2.98225e-29
      129.071  2.88666e-29
      129.348  2.78735e-29
      129.626  2.68104e-29
      129.904  2.57585e-29
      130.183  2.46674e-29
      130.462  2.35251e-29
      130.742  2.23372e-29
      131.022  2.12216e-29
      131.303  2.00972e-29
      131.585  1.89249e-29
      131.868  1.79003e-29
      132.150  1.69429e-29
      132.434  1.60067e-29
      132.718  1.50816e-29
      133.003  1.43405e-29
      133.288  1.36251e-29
      133.574  1.30740e-29
      133.861  1.25440e-29
      134.148  1.21630e-29
      134.436  1.19408e-29
      134.724  1.18579e-29
      135.013  1.17043e-29
      135.303  1.17206e-29
      135.593  1.18275e-29
      135.884  1.19814e-29
      136.176  1.20857e-29
      136.468  1.23975e-29
      136.761  1.28234e-29
      137.054  1.31264e-29
      137.348  1.33547e-29
      137.643  1.38625e-29
      137.938  1.42375e-29
      138.234  1.46592e-29
      138.531  1.50215e-29
      138.828  1.54746e-29
      139.126  1.59656e-29
      139.425  1.63825e-29
      139.724  1.68309e-29
      140.024  1.73431e-29
      140.324  1.77649e-29
      140.625  1.82191e-29
      140.927  1.85674e-29
      141.229  1.90519e-29
      141.532  1.96126e-29
      141.836  2.01514e-29
      142.140  2.05519e-29
      142.445  2.09391e-29
      142.751  2.15009e-29
      143.057  2.18915e-29
      143.364  2.23137e-29
      143.672  2.27590e-29
      143.980  2.31587e-29
      144.289  2.37012e-29
      144.598  2.40340e-29
      144.909  2.42775e-29
      145.220  2.47030e-29
      145.531  2.50341e-29
      145.843  2.53685e-29
      146.156  2.55256e-29
      146.470  2.57961e-29
      146.784  2.61519e-29
      147.099  2.63364e-29
      147.415  2.63472e-29
      147.731  2.66116e-29
      148.048  2.66154e-29
      148.366  2.66972e-29
      148.684  2.66410e-29
      149.003  2.65930e-29
      149.323  2.65383e-29
      149.643  2.65628e-29
      149.964  2.63910e-29
      150.286  2.61230e-29
      150.608  2.58946e-29
      150.932  2.56334e-29
      151.255  2.53761e-29
      151.580  2.49674e-29
      151.905  2.46001e-29
      152.231  2.43206e-29
      152.558  2.39832e-29
      152.885  2.35141e-29
      153.213  2.30259e-29
      153.542  2.26752e-29
      153.871  2.22941e-29
      154.201  2.18837e-29
      154.532  2.14699e-29
      154.864  2.11431e-29
      155.196  2.09173e-29
      155.529  2.06656e-29
      155.863  2.04698e-29
      156.197  2.02352e-29
      156.532  2.01304e-29
      156.868  2.00884e-29
      157.205  2.00576e-29
      157.542  2.00325e-29
      157.880  2.01045e-29
      158.219  2.02465e-29
      158.558  2.04636e-29
      158.899  2.06057e-29
      159.240  2.07093e-29
      159.581  2.09321e-29
      159.924  2.11300e-29
      160.267  2.13343e-29
      160.611  2.15434e-29
      160.955  2.17401e-29
      161.301  2.18602e-29
      161.647  2.20020e-29
      161.994  2.21458e-29
      162.341  2.22406e-29
      162.689  2.23289e-29
      163.038  2.23773e-29
      163.388  2.23721e-29
      163.739  2.22818e-29
      164.090  2.22420e-29
      164.442  2.21473e-29
      164.795  2.20140e-29
      165.149  2.18683e-29
      165.503  2.16892e-29
      165.858  2.14528e-29
      166.214  2.12059e-29
      166.571  2.09780e-29
      166.928  2.06902e-29
      167.286  2.04033e-29
      167.645  2.01216e-29
      168.005  1.98207e-29
      168.365  1.94869e-29
      168.726  1.91826e-29
      169.088  1.89017e-29
      169.451  1.85934e-29
      169.815  1.83071e-29
      170.179  1.80392e-29
      170.544  1.77435e-29
      170.910  1.74760e-29
      171.277  1.72348e-29
      171.644  1.69884e-29
      172.013  1.67374e-29
      172.382  1.64815e-29
      172.752  1.62458e-29
      173.122  1.59892e-29
      173.494  1.57131e-29
      173.866  1.54472e-29
      174.239  1.51697e-29
      174.613  1.48683e-29
      174.988  1.45539e-29
      175.363  1.42484e-29
      175.739  1.38932e-29
      176.116  1.35342e-29
      176.494  1.31736e-29
      176.873  1.27785e-29
      177.252  1.23751e-29
      177.633  1.19725e-29
      178.014  1.15666e-29
      178.396  1.11503e-29
      178.779  1.07446e-29
      179.162  1.03325e-29
      179.547  9.92139e-30
      179.932  9.53928e-30
      180.318  9.15357e-30
      180.705  8.77329e-30
      181.093  8.42259e-30
      181.481  8.06008e-30
      181.870  7.70246e-30
      182.261  7.38846e-30
      182.652  7.05245e-30
      183.044  6.73083e-30
      183.436  6.42816e-30
      183.830  6.12247e-30
      184.224  5.83117e-30
      184.620  5.58101e-30
      185.016  5.31828e-30
      185.413  5.08136e-30
      185.811  4.87642e-30
      186.209  4.68993e-30
      186.609  4.49942e-30
      187.009  4.36524e-30
      187.410  4.26281e-30
      187.812  4.14972e-30
      188.216  4.08393e-30
      188.619  4.05296e-30
      189.024  4.01774e-30
      189.430  4.01153e-30
      189.836  4.05435e-30
      190.243  4.12066e-30
      190.652  4.19815e-30
      191.061  4.29813e-30
      191.471  4.41904e-30
      191.881  4.55210e-30
      192.293  4.73322e-30
      192.706  4.91145e-30
      193.119  5.13400e-30
      193.534  5.38020e-30
      193.949  5.61068e-30
      194.365  5.86364e-30
      194.782  6.14180e-30
      195.200  6.44077e-30
      195.619  6.74516e-30
      196.038  7.05253e-30
      196.459  7.40028e-30
      196.881  7.79094e-30
      197.303  8.13483e-30
      197.726  8.50646e-30
      198.151  8.92344e-30
      198.576  9.35515e-30
      199.002  9.78715e-30
      199.429  1.02566e-29
      199.857  1.07530e-29
      200.285  1.12582e-29
      200.715  1.17723e-29
      201.146  1.23343e-29
      201.577  1.29092e-29
      202.010  1.35095e-29
      202.443  1.41495e-29
      202.878  1.47685e-29
      203.313  1.54572e-29
      203.749  1.61997e-29
      204.186  1.69297e-29
      204.625  1.76821e-29
      205.064  1.85014e-29
      205.504  1.93390e-29
      205.944  2.01991e-29
      206.386  2.11010e-29
      206.829  2.20681e-29
      207.273  2.30650e-29
      207.718  2.40850e-29
      208.163  2.51375e-29
      208.610  2.62496e-29
      209.058  2.73967e-29
      209.506  2.85945e-29
      209.956  2.98173e-29
      210.406  3.11025e-29
      210.858  3.24588e-29
      211.310  3.38408e-29
      211.764  3.52475e-29
      212.218  3.67367e-29
      212.673  3.82717e-29
      213.129  3.98751e-29
      213.587  4.15052e-29
      214.045  4.32179e-29
      214.504  4.50030e-29
      214.965  4.68404e-29
      215.426  4.87215e-29
      215.888  5.06876e-29
      216.351  5.27091e-29
      216.815  5.48004e-29
      217.281  5.69665e-29
      217.747  5.90555e-29
      218.214  6.09846e-29
      218.682  6.34219e-29
      219.151  6.58713e-29
      219.622  6.83766e-29
      220.093  7.09566e-29
      220.565  7.36355e-29
      221.038  7.63730e-29
      221.513  7.91834e-29
      221.988  8.20710e-29
      222.464  8.50648e-29
      222.942  8.81403e-29
      223.420  9.12834e-29
      223.899  9.44850e-29
      224.380  9.77850e-29
      224.861  1.01176e-28
      225.344  1.04631e-28
      225.827  1.08143e-28
      226.311  1.11753e-28
      226.797  1.15470e-28
      227.284  1.19217e-28
      227.771  1.23037e-28
      228.260  1.26925e-28
      228.750  1.30863e-28
      229.241  1.34875e-28
      229.733  1.38930e-28
      230.225  1.43031e-28
      230.719  1.47184e-28
      231.215  1.51371e-28
      231.711  1.55593e-28
      232.208  1.59791e-28
      232.706  1.64049e-28
      233.205  1.68303e-28
      233.706  1.72546e-28
      234.207  1.76761e-28
      234.710  1.80951e-28
      235.213  1.85088e-28
      235.718  1.89177e-28
      236.224  1.93182e-28
      236.730  1.97096e-28
      237.238  2.00895e-28
      237.747  2.04561e-28
      238.257  2.08098e-28
      238.769  2.11474e-28
      239.281  2.14633e-28
      239.794  2.17570e-28
      240.309  2.20307e-28
      240.825  2.22759e-28
      241.341  2.24934e-28
      241.859  2.26787e-28
      242.378  2.28328e-28
      242.898  2.29505e-28
      243.419  2.30289e-28
      243.941  2.30642e-28
      244.465  2.30569e-28
      244.990  2.30033e-28
      245.515  2.28994e-28
      246.042  2.27437e-28
      246.570  2.25362e-28
      247.099  2.22746e-28
      247.629  2.19553e-28
      248.160  2.15778e-28
      248.693  2.11421e-28
      249.226  2.06474e-28
      249.761  2.00958e-28
      250.297  1.94850e-28
      250.834  1.88199e-28
      251.372  1.81020e-28
      251.912  1.73339e-28
      252.452  1.65177e-28
      252.994  1.56589e-28
      253.536  1.47652e-28
      254.081  1.38412e-28
      254.626  1.28953e-28
      255.172  1.19363e-28
      255.720  1.09690e-28
      256.268  1.00056e-28
      256.818  9.05357e-29
      257.369  8.12435e-29
      257.921  7.22541e-29
      258.475  6.36397e-29
      259.029  5.55283e-29
      259.585  4.79738e-29
      260.142  4.10083e-29
      260.700  3.46995e-29
      261.260  2.90888e-29
      261.820  2.41675e-29
      262.382  1.99132e-29
      262.945  1.63241e-29
      263.509  1.33689e-29
      264.075  1.10098e-29
      264.641  9.15059e-30
      265.209  7.74370e-30
      265.778  6.73492e-30
      266.348  6.05709e-30
      266.920  5.63003e-30
      267.492  5.38519e-30
      268.066  5.32298e-30
      268.642  5.39460e-30
      269.218  5.54151e-30
      269.796  5.74883e-30
      270.374  5.99230e-30
      270.954  6.31953e-30
      271.536  6.61869e-30
      272.118  6.96843e-30
      272.702  7.32198e-30
      273.287  7.72393e-30
      273.874  8.12233e-30
      274.461  8.54797e-30
      275.050  8.99182e-30
      275.640  9.45393e-30
      276.232  9.97001e-30
      276.825  1.04765e-29
      277.418  1.09711e-29
      278.014  1.15555e-29
      278.610  1.21339e-29
      279.208  1.27467e-29
      279.807  1.33987e-29
      280.407  1.40344e-29
      281.009  1.47384e-29
      281.612  1.54750e-29
      282.216  1.62276e-29
      282.822  1.70341e-29
      283.429  1.78438e-29
      284.037  1.86682e-29
      284.646  1.95639e-29
      285.257  2.04965e-29
      285.869  2.14461e-29
      286.482  2.24745e-29
      287.097  2.34935e-29
      287.713  2.45609e-29
      288.330  2.56857e-29
      288.949  2.68742e-29
      289.569  2.81114e-29
      290.190  2.94345e-29
      290.813  3.06973e-29
      291.437  3.20088e-29
      292.062  3.34767e-29
      292.689  3.50142e-29
      293.317  3.64935e-29
      293.946  3.81563e-29
      294.577  3.97708e-29
      295.209  4.13928e-29
      295.842  4.32864e-29
      296.477  4.51351e-29
      297.113  4.70361e-29
      297.751  4.91834e-29
      298.390  5.11042e-29
      299.030  5.32051e-29
      299.671  5.54317e-29
      300.314  5.78025e-29
      300.959  6.01781e-29
      301.604  6.26777e-29
      302.252  6.51956e-29
      302.900  6.76867e-29
      303.550  7.04577e-29
      304.201  7.32434e-29
      304.854  7.60260e-29
      305.508  7.91479e-29
      306.164  8.20674e-29
      306.821  8.49630e-29
      307.479  8.82333e-29
      308.138  9.15130e-29
      308.800  9.46784e-29
      309.462  9.80542e-29
      310.126  1.01835e-28
      310.792  1.04820e-28
      311.458  1.08362e-28
      312.127  1.12211e-28
      312.796  1.15765e-28
      313.468  1.19378e-28
      314.140  1.23496e-28
      314.814  1.26995e-28
      315.490  1.30372e-28
      316.167  1.34592e-28
      316.845  1.38196e-28
      317.525  1.41934e-28
      318.206  1.45631e-28
      318.889  1.49547e-28
      319.573  1.52837e-28
      320.259  1.56265e-28
      320.946  1.60072e-28
      321.635  1.63373e-28
      322.325  1.66833e-28
      323.016  1.70294e-28
      323.709  1.73096e-28
      324.404  1.75683e-28
      325.100  1.78774e-28
      325.797  1.81269e-28
      326.497  1.83645e-28
      327.197  1.85737e-28
      327.899  1.87817e-28
      328.603  1.89150e-28
      329.307  1.90323e-28
      330.014  1.91549e-28
      330.722  1.92203e-28
      331.432  1.92497e-28
      332.143  1.92589e-28
      332.856  1.92274e-28
      333.570  1.91288e-28
      334.285  1.90189e-28
      335.003  1.88757e-28
      335.721  1.86688e-28
      336.442  1.84207e-28
      337.164  1.81512e-28
      337.887  1.78340e-28
      338.612  1.74535e-28
      339.339  1.70458e-28
      340.067  1.66248e-28
      340.796  1.61502e-28
      341.527  1.56483e-28
      342.260  1.51368e-28
      342.995  1.45853e-28
      343.731  1.40165e-28
      344.468  1.34571e-28
      345.207  1.28913e-28
      345.948  1.22423e-28
      346.690  1.17258e-28
      347.434  1.12171e-28
      348.179  1.07058e-28
      348.927  1.02118e-28
      349.676  9.76542e-29
      350.426  9.36384e-29
      351.177  9.00592e-29
      351.931  8.69637e-29
      352.686  8.44372e-29
      353.443  8.24190e-29
      354.201  8.09299e-29
      354.961  7.99202e-29
      355.723  7.93867e-29
      356.486  7.93024e-29
      357.251  7.96068e-29
      358.017  8.02274e-29
      358.785  8.11064e-29
      359.555  8.22627e-29
      360.327  8.36232e-29
      361.100  8.49804e-29
      361.875  8.64852e-29
      362.651  8.80414e-29
      363.429  8.96111e-29
      364.209  9.11163e-29
      364.991  9.26383e-29
      365.773  9.42206e-29
      366.559  9.55571e-29
      367.345  9.68324e-29
      368.133  9.81032e-29
      368.923  9.93104e-29
      369.715  1.00321e-28
      370.508  1.01177e-28
      371.303  1.02085e-28
      372.100  1.02831e-28
      372.898  1.03289e-28
      373.698  1.03703e-28
      374.500  1.03922e-28
      375.303  1.04146e-28
      376.108  1.03971e-28
      376.916  1.03738e-28
      377.724  1.03533e-28
      378.535  1.03042e-28
      379.347  1.02195e-28
      380.161  1.01359e-28
      380.976  1.00402e-28
      381.794  9.94007e-29
      382.613  9.78806e-29
      383.434  9.65821e-29
      384.257  9.52521e-29
      385.081  9.37877e-29
      385.907  9.19334e-29
      386.735  9.03074e-29
      387.565  8.86275e-29
      388.397  8.68236e-29
      389.230  8.49910e-29
      390.065  8.34390e-29
      390.902  8.19681e-29
      391.741  8.04188e-29
      392.581  7.87643e-29
      393.424  7.74080e-29
      394.268  7.62330e-29
      395.114  7.50621e-29
      395.962  7.38477e-29
      396.811  7.29477e-29
      397.663  7.22773e-29
      398.516  7.14869e-29
      399.371  7.06060e-29
      400.228  6.98231e-29
      401.087  6.91772e-29
      401.947  6.84629e-29
      402.809  6.75619e-29
      403.674  6.66899e-29
      404.540  6.61182e-29
      405.408  6.52227e-29
      406.278  6.40984e-29
      407.150  6.30874e-29
      408.023  6.19704e-29
      408.898  6.07055e-29
      409.776  5.93208e-29
      410.655  5.79283e-29
      411.536  5.66406e-29
      412.419  5.53526e-29
      413.304  5.37899e-29
      414.191  5.21039e-29
      415.080  5.05193e-29
      415.970  4.89865e-29
      416.862  4.73256e-29
      417.757  4.55934e-29
      418.653  4.41401e-29
      419.551  4.26400e-29
      420.452  4.10264e-29
      421.354  3.93073e-29
      422.258  3.77767e-29
      423.164  3.61678e-29
      424.072  3.46259e-29
      424.982  3.27867e-29
      425.893  3.12616e-29
      426.807  2.98645e-29
      427.723  2.83229e-29
      428.641  2.66894e-29
      429.561  2.49684e-29
      430.482  2.34016e-29
      431.406  2.19501e-29
      432.332  2.04143e-29
      433.259  1.87046e-29
      434.189  1.72984e-29
      435.121  1.60681e-29
      436.054  1.47116e-29
      436.990  1.32498e-29
      437.927  1.19975e-29
      438.867  1.08088e-29
      439.809  9.71175e-30
      440.752  8.60655e-30
      441.698  7.51263e-30
      442.645  6.60553e-30
      443.595  5.89509e-30
      444.547  5.17839e-30
      445.501  4.35270e-30
      446.457  3.59034e-30
      447.415  3.05282e-30
      448.375  2.52603e-30
      449.337  2.07587e-30
      450.301  1.69645e-30
      451.267  1.27564e-30
      452.235  1.04119e-30
      453.206  9.41908e-31
      454.178  6.44262e-31
      455.153  4.33739e-31
      456.129  3.84182e-31
      457.108  2.51031e-31
      458.088  1.66963e-31
      459.071  1.17683e-31
      460.056  1.00138e-31
      461.043  6.11601e-32
      462.032  3.73626e-33
      463.024 -2.66336e-32
      464.018  2.77541e-33
      465.013 -2.21761e-32
      466.011 -4.69693e-32
      467.011 -5.13104e-32
      468.013 -1.11295e-31
      469.017  2.38654e-32
      470.023 -3.36748e-32
      471.032 -1.74940e-32
      472.042 -5.63894e-33
      473.055 -3.73705e-32
      474.070 -3.33507e-32
      475.087 -2.04490e-32
      476.107 -5.13870e-32
      477.128 -7.20665e-32
      478.152 -3.26284e-32
      479.178 -1.48707e-32
      480.206 -1.98695e-32
      481.236 -4.18221e-32
      482.269 -2.63603e-32
      483.304 -2.33825e-32
      484.341 -4.37104e-32
      485.380 -1.92660e-32
      486.421  3.64635e-32
      487.465  7.05209e-33
      488.510  1.31610e-32
      489.559  2.79701e-32
      490.610  2.15299e-32
      491.662  1.92939e-32
      492.717  5.11832e-32
      493.774  6.78595e-32
      494.833  4.91670e-32
      495.895  7.74781e-32
      496.959  8.28954e-32
      498.025  8.12596e-32
      499.094  1.13248e-31
      500.165  1.04112e-31
      501.238  1.09265e-31
      502.314  1.63616e-31
      503.392  1.57237e-31
      504.471  1.43760e-31
      505.554  1.85440e-31
      506.639  1.86753e-31
      507.726  1.83883e-31
      508.815  2.06742e-31
      509.907  2.54010e-31
      511.001  2.35848e-31
      512.097  2.52246e-31
      513.196  2.76604e-31
      514.297  2.78426e-31
      515.400  3.04551e-31
      516.507  3.19990e-31
      517.615  3.11542e-31
      518.725  3.32573e-31
      519.838  3.76065e-31
      520.954  3.60447e-31
      522.071  3.77232e-31
      523.191  3.90203e-31
      524.314  4.02910e-31
      525.439  3.92859e-31
      526.566  4.25347e-31
      527.696  4.46095e-31
      528.829  4.50404e-31
      529.963  4.52184e-31
      531.100  4.54723e-31
      532.240  4.51222e-31
      533.382  4.61424e-31
      534.526  4.63814e-31
      535.673  4.87188e-31
      536.822  4.89671e-31
      537.974  4.90610e-31
      539.129  4.92640e-31
      540.285  4.84307e-31
      541.444  4.93630e-31
      542.606  4.91504e-31
      543.770  4.95922e-31
      544.937  4.94942e-31
      546.107  4.96138e-31
      547.279  3.80848e-31
      548.453  5.03375e-31
      549.629  4.90484e-31
      550.809  4.79786e-31
      551.990  4.69431e-31
      553.174  4.76307e-31
      554.362  4.55678e-31
      555.551  4.53278e-31
      556.743  4.51171e-31
      557.937  4.59449e-31
      559.135  4.46263e-31
      560.334  4.22762e-31
      561.537  4.36427e-31
      562.742  4.30175e-31
      563.949  4.09455e-31
      565.159  4.09189e-31
      566.371  3.98328e-31
      567.586  3.93339e-31
      568.805  3.69535e-31
      570.025  3.65747e-31
      571.248  3.68977e-31
      572.474  3.52510e-31
      573.702  3.43943e-31
      574.933  3.35439e-31
      576.166  3.28685e-31
      577.403  3.28319e-31
      578.641  3.03126e-31
      579.883  3.06034e-31
      581.127  2.99848e-31
      582.374  2.79970e-31
      583.624  2.67259e-31
      584.876  2.79127e-31
      586.131  2.71049e-31
      587.388  2.41430e-31
      588.649  2.35277e-31
      589.912  2.37274e-31
      591.178  2.35150e-31
      592.446  2.13445e-31
      593.717  2.03503e-31
      594.991  1.85117e-31
      596.268  1.96990e-31
      597.547  1.90531e-31
      598.829  1.75807e-31
      600.114  1.75899e-31
      601.402  1.63080e-31
      602.692  1.60960e-31
      603.985  1.54164e-31
      605.281  1.57332e-31
      606.580  1.34312e-31
      607.881  1.49431e-31
      609.185  1.35145e-31
      610.493  1.20658e-31
      611.802  1.13500e-31
      613.115  1.08841e-31
      614.431  1.10174e-31
      615.749  1.14439e-31
      617.070  9.71109e-32
      618.394  9.51266e-32
      619.721  8.36880e-32
      621.050  8.34972e-32
      622.383  7.99590e-32
      623.719  8.32881e-32
      625.057  7.56244e-32
      626.398  8.02251e-32
      627.742  7.19114e-32
      629.089  5.55586e-32
      630.438  5.45003e-32
      631.791  4.95338e-32
      633.147  4.16389e-32
      634.505  4.19434e-32
      635.867  5.68204e-32
      637.231  4.73658e-32
      638.598  3.72972e-32
      639.969  3.13187e-32
      641.342  3.13668e-32
      642.718  2.41710e-32
      644.097  1.93998e-32
      645.479  1.89235e-32
      646.863  3.00069e-32
      648.252  1.17458e-32
      649.643  7.68681e-32
      651.036  7.96605e-32
      652.433  8.98318e-32
      653.833  7.99737e-32
      655.236  6.47784e-32
      656.642  6.42298e-32
      658.051  8.01775e-32
      659.462  8.55300e-32
      660.878  7.39690e-32
      662.295  6.88401e-32
      663.717  5.96557e-32
      665.141  6.00064e-32
      666.568  5.28672e-32
      667.998  4.79354e-32
      669.431  6.89464e-32
      670.868  7.27770e-32
      672.308  7.39051e-32
      673.750  6.07904e-32
      675.195  5.63412e-32
      676.644  5.22764e-32
      678.096  4.15993e-32
      679.550  4.45648e-32
      681.009  5.34132e-32
      682.470  5.75572e-32
      683.934  5.79430e-32
      685.402  5.05395e-32
      686.873  4.61482e-32
      688.346  5.16064e-32
      689.823  4.99282e-32
      691.303  5.05164e-32
      692.786  4.85282e-32
      694.272  5.30789e-32
      695.762  5.51888e-32
      697.255  5.54388e-32
      698.751  5.39941e-32
      700.251  4.97199e-32
      701.753  4.69610e-32
      703.259  4.19503e-32
      704.768  4.71289e-32
      706.280  4.90777e-32
      707.795  4.32697e-32
      709.314  4.46364e-32
      710.836  5.07114e-32
      712.361  5.00937e-32
      713.889  3.51243e-32
      715.421  3.46647e-32
      716.956  4.25557e-32
      718.494  4.53005e-32
      720.036  4.06027e-32
      721.581  4.49463e-32
      723.129  4.73436e-32
      724.681  5.28977e-32
      726.236  5.06287e-32
      727.794  3.84292e-32
      729.356  3.64536e-32
      730.920  4.42713e-32
      732.488  4.38388e-32
      734.060  3.65186e-32
      735.635  4.16874e-32
      737.213  4.89249e-32
      738.795  4.56025e-32
      740.381  4.09189e-32
      741.969  4.62970e-32
      743.561  4.49718e-32
      745.157  3.53691e-32
      746.755  3.73120e-32
      748.357  4.29560e-32
      749.963  4.34661e-32
      751.572  4.25234e-32
      753.185  4.08375e-32
      754.801  4.10098e-32
      756.421  3.97801e-32
      758.043  4.06976e-32
      759.670  4.71123e-32
      761.300  5.01435e-32
      762.933  4.20587e-32
      764.570  4.29824e-32
      766.211  4.27051e-32
      767.855  5.14621e-32
      769.502  7.36922e-33
      771.154 -2.51341e-32
      772.808 -1.90593e-32
      774.466 -1.93275e-32
      776.128 -1.30758e-32
      777.793 -8.32033e-33
      779.461 -1.44697e-32
      781.134 -1.95593e-32
      782.811 -1.62684e-32
      784.490 -1.67180e-32
      786.173 -1.77954e-32
      787.860 -1.76421e-32
      789.550 -1.79021e-32
      791.244 -1.68886e-32
      792.942 -1.69502e-32
      794.643 -1.40961e-32
      796.349 -3.12812e-32
      798.058 -4.04898e-32
      799.770 -3.36090e-32
      801.485 -3.78270e-32
      803.205 -3.71869e-32
      804.929 -3.91662e-32
      806.655 -3.95772e-32
      808.386 -4.83004e-32
      810.121 -5.39952e-32
      811.859 -5.39670e-32
      813.601 -6.39674e-32
      815.347 -7.04105e-32
      817.096 -8.14034e-32
      818.849 -7.85726e-32
      820.606 -6.30413e-32
      822.367 -8.35850e-32
      824.131 -8.47346e-32
      825.900 -8.76008e-32
      827.672 -9.70686e-32
      829.448 -1.17579e-31
      831.228 -1.10195e-31
      833.011 -1.09613e-31
      834.798 -1.16206e-31
      836.589 -1.31327e-31
      838.384 -1.36204e-31
      840.183 -1.33563e-31
      841.986 -1.41692e-31
      843.793 -1.21364e-31
      845.603 -3.02736e-31
      847.417 -1.65667e-31
      849.236 -1.65409e-31
      851.057 -1.78917e-31
      852.883 -1.75774e-31
      854.713 -1.77288e-31
      856.547 -1.82853e-31
      858.385 -1.86681e-31
      860.227 -1.95544e-31
      862.073 -2.11341e-31
      863.922 -1.59448e-31
      865.776 -1.75324e-31
      867.634 -2.17068e-31
      869.495 -2.15321e-31
      871.361 -2.03444e-31
      873.230 -2.10396e-31
      875.104 -2.38303e-31
      876.982 -1.98487e-31
      878.864 -1.83455e-31
      880.749 -1.76122e-31
      882.638 -1.73391e-31
      884.533 -1.87475e-31
      886.430 -2.06404e-31
      888.332 -2.11910e-31
      890.238 -2.26832e-31
      892.149 -2.22198e-31
      894.063 -2.32358e-31
      895.981 -2.49572e-31
      897.904 -2.54865e-31
      899.830 -2.51026e-31
      901.760 -2.50864e-31
      903.695 -2.58383e-31
      905.634 -2.57050e-31
      907.578 -2.78730e-31
      909.525 -1.85576e-31
      911.477 -3.85276e-31
      913.432 -2.40331e-31
      915.392 -2.10463e-31
      917.356 -2.23321e-31
      919.324 -1.59102e-31
      921.297 -1.66517e-31
      923.273 -1.47251e-31
      925.255 -9.45244e-32
      927.240 -4.12828e-32
      929.230 -5.31503e-32
      931.223  3.57097e-32
      933.221  6.91557e-32
      935.223  1.48949e-31
      937.230  1.53404e-31
      939.240  2.55201e-31
      941.256  3.44789e-31
      943.276  4.53911e-31
      945.300  5.29463e-31
      947.328  6.47867e-31
      949.361  7.32649e-31
      951.397  8.68953e-31
      953.439  9.88039e-31
      955.484  1.10565e-30
      957.534  1.24294e-30
      959.589  1.30060e-30
      961.648  1.46596e-30
      963.711  1.57816e-30
      965.779  1.72002e-30
      967.852  1.87715e-30
      969.928  1.96965e-30
      972.008  2.16018e-30
      974.095  2.34671e-30
      976.184  2.56417e-30
      978.279  2.71392e-30
      980.378  2.86507e-30
      982.482  3.16170e-30
      984.589  3.36981e-30
      986.702  3.60874e-30
      988.819  3.84644e-30
      990.940  4.09852e-30
      993.067  4.36681e-30
      995.198  4.63642e-30
      997.333  4.92081e-30
      999.473  5.24723e-30
      1001.62  5.57954e-30
      1003.77  5.89773e-30
      1005.92  6.25342e-30
      1008.08  6.62886e-30
      1010.24  7.01158e-30
      1012.41  7.41154e-30
      1014.58  7.87113e-30
      1016.76  8.24087e-30
      1018.94  8.73024e-30
      1021.13  9.24242e-30
      1023.32  9.71919e-30
      1025.51  1.03208e-29
      1027.71  1.08537e-29
      1029.92  1.13972e-29
      1032.13  1.20307e-29
      1034.34  1.26716e-29
      1036.56  1.33417e-29
      1038.79  1.40587e-29
      1041.01  1.48160e-29
      1043.25  1.56236e-29
      1045.49  1.64370e-29
      1047.73  1.73037e-29
      1049.98  1.81916e-29
      1052.23  1.91547e-29
      1054.49  2.01559e-29
      1056.75  2.12203e-29
      1059.02  2.22847e-29
      1061.29  2.34328e-29
      1063.57  2.46032e-29
      1065.85  2.58544e-29
      1068.14  2.71647e-29
      1070.43  2.85432e-29
      1072.72  2.99576e-29
      1075.03  3.14406e-29
      1077.33  3.30237e-29
      1079.64  3.46763e-29
      1081.96  3.63614e-29
      1084.28  3.81457e-29
      1086.61  4.00524e-29
      1088.94  4.20190e-29
      1091.28  4.40403e-29
      1093.62  4.61553e-29
      1095.97  4.83990e-29
      1098.32  5.07211e-29
      1100.67  5.31420e-29
      1103.04  5.56749e-29
      1105.40  5.83033e-29
      1107.77  6.10356e-29
      1110.15  6.38998e-29
      1112.53  6.69242e-29
      1114.92  7.00561e-29
      1117.31  7.33115e-29
      1119.71  7.67072e-29
      1122.11  8.02260e-29
      1124.52  8.39058e-29
      1126.93  8.77175e-29
      1129.35  9.16803e-29
      1131.77  9.57770e-29
      1134.20  1.00053e-28
      1136.63  1.04469e-28
      1139.07  1.09048e-28
      1141.52  1.13815e-28
      1143.97  1.18749e-28
      1146.42  1.23861e-28
      1148.88  1.29149e-28
      1151.35  1.34680e-28
      1153.82  1.40384e-28
      1156.29  1.46297e-28
      1158.77  1.52418e-28
      1161.26  1.58770e-28
      1163.75  1.65315e-28
      1166.25  1.72097e-28
      1168.75  1.79083e-28
      1171.26  1.86319e-28
      1173.77  1.93804e-28
      1176.29  2.01367e-28
      1178.81  2.09315e-28
      1181.34  2.17547e-28
      1183.88  2.26009e-28
      1186.42  2.34724e-28
      1188.96  2.43718e-28
      1191.51  2.52960e-28
      1194.07  2.62457e-28
      1196.63  2.72249e-28
      1199.20  2.82314e-28
      1201.77  2.92638e-28
      1204.35  3.03257e-28
      1206.94  3.14157e-28
      1209.52  3.25322e-28
      1212.12  3.36774e-28
      1214.72  3.48509e-28
      1217.33  3.60466e-28
      1219.94  3.72754e-28
      1222.56  3.85298e-28
      1225.18  3.98083e-28
      1227.81  4.11130e-28
      1230.44  4.24177e-28
      1233.08  4.37817e-28
      1235.73  4.51566e-28
      1238.38  4.65443e-28
      1241.04  4.79480e-28
      1243.70  4.93706e-28
      1246.37  5.08133e-28
      1249.04  5.22634e-28
      1251.72  5.37193e-28
      1254.41  5.51716e-28
      1257.10  5.66570e-28
      1259.80  5.81277e-28
      1262.50  5.95948e-28
      1265.21  6.10489e-28
      1267.92  6.24948e-28
      1270.64  6.39279e-28
      1273.37  6.53374e-28
      1276.10  6.67218e-28
      1278.84  6.80681e-28
      1281.58  6.93818e-28
      1284.33  7.06481e-28
      1287.09  7.18614e-28
      1289.85  7.30197e-28
      1292.62  7.41066e-28
      1295.39  7.51217e-28
      1298.17  7.60565e-28
      1300.96  7.68987e-28
      1303.75  7.76404e-28
      1306.55  7.82777e-28
      1309.35  7.87958e-28
      1312.16  7.91876e-28
      1314.97  7.94456e-28
      1317.80  7.95593e-28
      1320.62  7.95192e-28
      1323.46  7.93182e-28
      1326.30  7.89487e-28
      1329.14  7.84011e-28
      1331.99  7.76683e-28
      1334.85  7.67491e-28
      1337.72  7.56314e-28
      1340.59  7.43160e-28
      1343.46  7.28024e-28
      1346.35  7.10844e-28
      1349.23  6.91693e-28
      1352.13  6.70597e-28
      1355.03  6.47600e-28
      1357.94  6.22737e-28
      1360.85  5.96186e-28
      1363.77  5.68044e-28
      1366.70  5.38527e-28
      1369.63  5.07815e-28
      1372.57  4.76116e-28
      1375.51  4.43618e-28
      1378.46  4.10814e-28
      1381.42  3.77744e-28
      1384.39  3.44821e-28
      1387.36  3.12414e-28
      1390.33  2.80768e-28
      1393.32  2.50190e-28
      1396.31  2.21080e-28
      1399.30  1.93645e-28
      1402.30  1.68046e-28
      1405.31  1.44572e-28
      1408.33  1.23333e-28
      1411.35  1.04457e-28
      1414.38  8.78710e-29
      1417.41  7.36192e-29
      1420.45  6.15976e-29
      1423.50  5.16544e-29
      1426.56  4.36179e-29
      1429.62  3.72764e-29
      1432.68  3.24153e-29
      1435.76  2.88207e-29
      1438.84  2.62543e-29
      1441.93  2.44838e-29
      1445.02  2.33415e-29
      1448.12  2.26938e-29
      1451.23  2.23729e-29
      1454.34  2.22883e-29
      1457.46  2.23749e-29
      1460.59  2.25051e-29
      1463.72  2.27450e-29
      1466.86  2.30299e-29
      1470.01  2.33074e-29
      1473.16  2.36033e-29
      1476.33  2.38837e-29
      1479.49  2.41407e-29
      1482.67  2.44353e-29
      1485.85  2.46844e-29
      1489.04  2.49648e-29
      1492.23  2.51781e-29
      1495.43  2.54213e-29
      1498.64  2.56336e-29
      1501.86  2.57845e-29
      1505.08  2.58644e-29
      1508.31  2.60242e-29
      1511.54  2.62481e-29
      1514.79  2.62911e-29
      1518.04  2.64644e-29
      1521.29  2.65672e-29
      1524.56  2.67405e-29
      1527.83  2.68518e-29
      1531.11  2.69627e-29
      1534.39  2.68278e-29
      1537.69  2.70631e-29
      1540.98  2.69827e-29
      1544.29  2.69716e-29
      1547.60  2.69331e-29
      1550.92  2.68243e-29
      1554.25  2.65920e-29
      1557.59  2.65257e-29
      1560.93  2.64483e-29
      1564.28  2.63735e-29
      1567.64  2.62610e-29
      1571.00  2.57345e-29
      1574.37  2.56587e-29
      1577.75  2.59189e-29
      1581.13  2.58240e-29
      1584.52  2.52238e-29
      1587.93  2.47588e-29
      1591.33  2.42814e-29
      1594.75  2.37706e-29
      1598.17  2.37097e-29
      1601.60  2.33623e-29
      1605.03  2.31023e-29
      1608.48  2.30526e-29
      1611.93  2.25866e-29
      1615.39  2.17666e-29
      1618.85  2.19200e-29
      1622.33  2.19439e-29
      1625.81  2.12621e-29
      1629.30  2.13697e-29
      1632.79  2.09565e-29
      1636.30  2.04413e-29
      1639.81  2.06035e-29
      1643.32  2.00071e-29
      1646.85  1.96999e-29
      1650.38  1.97072e-29
      1653.92  1.97021e-29
      1657.47  1.90927e-29
      1661.03  1.91064e-29
      1664.59  1.90650e-29
      1668.17  1.86619e-29
      1671.74  1.85918e-29
      1675.33  2.03221e-29
      1678.93  2.05045e-29
      1682.53  1.83253e-29
      1686.14  1.85039e-29
      1689.76  1.78070e-29
      1693.38  1.66480e-29
      1697.01  1.76389e-29
      1700.66  1.80661e-29
      1704.31  1.76750e-29
      1707.96  1.77104e-29
      1711.63  1.74464e-29
      1715.30  1.71786e-29
      1718.98  1.69750e-29
      1722.67  1.66858e-29
      1726.36  1.63208e-29
      1730.07  1.60359e-29
      1733.78  1.56660e-29
      1737.50  1.52685e-29
      1741.23  1.49158e-29
      1744.96  1.46020e-29
      1748.71  1.35933e-29
      1752.46  1.15319e-29
      1756.22  1.03866e-29
      1759.99  2.50097e-29
      1763.76  3.82783e-29
      1767.55  2.93303e-29
      1771.34  2.08186e-29
      1775.14  1.22020e-29
      1778.95  2.46485e-30
      1782.77  5.92923e-30
      1786.59  1.03992e-29
      1790.43  9.05789e-30
      1794.27  8.29163e-30
      1798.12  8.10620e-30
      1801.98  7.82870e-30
      1805.84  7.34457e-30
      1809.72  6.90876e-30
      1813.60  6.51837e-30
      1817.49  6.13450e-30
      1821.39  5.75366e-30
      1825.30  5.37421e-30
      1829.21  5.23359e-30
      1833.14  4.96384e-30
      1837.07  4.52096e-30
      1841.01  4.35192e-30
      1844.96  4.14733e-30
      1848.92  3.81439e-30
      1852.89  3.61372e-30
      1856.87  3.63430e-30
      1860.85  3.11457e-30
      1864.84  3.32738e-30
      1868.84  5.04087e-30
      1872.85  4.30808e-30
      1876.87  2.08962e-30
      1880.90  8.29455e-31
      1884.93  1.85403e-30
      1888.98  2.59114e-30
      1893.03  2.38374e-30
      1897.09  2.24433e-30
      1901.16  2.15020e-30
      1905.24  1.96404e-30
      1909.33  2.16876e-30
      1913.43  8.63592e-31
      1917.53  6.91751e-31
      1921.65  2.61128e-30
      1925.77 -7.65551e-30
      1929.90 -1.36962e-29
      1934.04 -2.37720e-30
      1938.19  1.80852e-30
      1942.35  1.40413e-30
      1946.52  1.46807e-30
      1950.70  1.31043e-30
      1954.88  1.27326e-30
      1959.08  1.23905e-30
      1963.28  9.97850e-31
      1967.49  9.31098e-31
      1971.71  1.14130e-30
      1975.94  1.25481e-30
      1980.18  1.07890e-30
      1984.43  1.09046e-30
      1988.69  1.04386e-30
      1992.96  4.63403e-31
      1997.23  2.11928e-30
      2001.52      0.00000
      2005.81      0.00000
      2010.12      0.00000
      2014.43      0.00000
      2018.75      0.00000
      2023.08      0.00000
      2027.42      0.00000
      2031.77      0.00000
      2036.13      0.00000
      2040.50      0.00000
      2044.88      0.00000
      2049.27      0.00000
      2053.66      0.00000
      2058.07      0.00000
      2062.49      0.00000
      2066.91      0.00000
      2071.35      0.00000
      2075.79      0.00000
      2080.25      0.00000
      2084.71      0.00000
      2089.18      0.00000
      2093.66      0.00000
      2098.16      0.00000
      2102.66      0.00000
      2107.17      0.00000
      2111.69      0.00000
      2116.22      0.00000
      2120.76      0.00000
      2125.31      0.00000
      2129.87      0.00000
      2134.44      0.00000
      2139.02      0.00000
      2143.61      0.00000
      2148.21      0.00000
      2152.82      0.00000
      2157.44      0.00000
      2162.07      0.00000
      2166.71      0.00000
      2171.36      0.00000
      2176.01      0.00000
      2180.68      0.00000
      2185.36      0.00000
      2190.05      0.00000
      2194.75      0.00000
      2199.46      0.00000
      2204.18      0.00000
      2208.91      0.00000
      2213.65      0.00000
      2218.40      0.00000
      2223.16      0.00000
      2227.93      0.00000
      2232.71      0.00000
      2237.50      0.00000
      2242.30      0.00000
      2247.11      0.00000
      2251.93      0.00000
      2256.76      0.00000
      2261.60      0.00000
      2266.46      0.00000
      2271.32      0.00000
      2276.19      0.00000
      2281.08      0.00000
      2285.97      0.00000
      2290.88      0.00000
      2295.79      0.00000
      2300.72      0.00000
      2305.65      0.00000
      2310.60      0.00000
      2315.56      0.00000
      2320.53      0.00000
      2325.51      0.00000
      2330.50      0.00000
      2335.50      0.00000
      2340.51      0.00000
      2345.53      0.00000
      2350.56      0.00000
      2355.60      0.00000
      2360.66      0.00000
      2365.72      0.00000
      2370.80      0.00000
      2375.89      0.00000
      2380.99      0.00000
      2386.09      0.00000
      2391.21      0.00000
      2396.34      0.00000
      2401.48      0.00000
      2406.64      0.00000
      2411.80      0.00000
      2416.98      0.00000
      2422.16      0.00000
      2427.36      0.00000
      2432.57      0.00000
      2437.79      0.00000
      2443.02      0.00000
      2448.26      0.00000
      2453.51      0.00000
      2458.78      0.00000
      2464.05      0.00000
      2469.34      0.00000
      2474.64      0.00000
      2479.95      0.00000
      2485.27      0.00000
      2490.60      0.00000
      2495.94      0.00000
      2501.30      0.00000
      2506.67      0.00000
      2512.04      0.00000
      2517.44      0.00000
      2522.84      0.00000
      2528.25      0.00000
      2533.67      0.00000
      2539.11      0.00000
      2544.56      0.00000
      2550.02      0.00000
      2555.49      0.00000
      2560.97      0.00000
      2566.47      0.00000
      2571.97      0.00000
      2577.49      0.00000
      2583.02      0.00000
      2588.56      0.00000
      2594.12      0.00000
      2599.68      0.00000
      2605.26      0.00000
      2610.85      0.00000
      2616.45      0.00000
      2622.07      0.00000
      2627.69      0.00000
      2633.33      0.00000
      2638.98      0.00000
      2644.65      0.00000
      2650.32      0.00000
      2656.00      0.00000
      2661.70      0.00000
      2667.41      0.00000
      2673.14      0.00000
      2678.87      0.00000
      2684.62      0.00000
      2690.38      0.00000
      2696.15      0.00000
      2701.94      0.00000
      2707.74      0.00000
      2713.54      0.00000
      2719.37      0.00000
      2725.20      0.00000
      2731.05      0.00000
      2736.91      0.00000
      2742.78      0.00000
      2748.67      0.00000
      2754.57      0.00000
      2760.48      0.00000
      2766.40      0.00000
      2772.33      0.00000
      2778.28      0.00000
      2784.24      0.00000
      2790.22      0.00000
      2796.21      0.00000
      2802.20      0.00000
      2808.21      0.00000
      2814.24      0.00000
      2820.28      0.00000
      2826.33      0.00000
      2832.39      0.00000
      2838.47      0.00000
      2844.56      0.00000
      2850.67      0.00000
      2856.78      0.00000
      2862.91      0.00000
      2869.06      0.00000
      2875.21      0.00000
      2881.38      0.00000
      2887.56      0.00000
      2893.76      0.00000
      2899.97      0.00000
      2906.19      0.00000
      2912.42      0.00000
      2918.67      0.00000
      2924.93      0.00000
      2931.21      0.00000
      2937.50      0.00000
      2943.80      0.00000
      2950.12      0.00000
      2956.45      0.00000
      2962.79      0.00000
      2969.15      0.00000
      2975.52      0.00000
      2981.90      0.00000
      2988.30      0.00000
      2994.72      0.00000
      3001.14      0.00000
      3007.58      0.00000
      3014.03      0.00000
      3020.50      0.00000
      3026.98      0.00000
      3033.47      0.00000
      3039.98      0.00000
      3046.50      0.00000
      3053.04      0.00000
      3059.59      0.00000
      3066.16      0.00000
      3072.73      0.00000
      3079.33      0.00000
      3085.94      0.00000
      3092.55      0.00000
      3099.19      0.00000
      3105.84      0.00000
      3112.51      0.00000
      3119.18      0.00000
      3125.88      0.00000
      3132.59      0.00000
      3139.31      0.00000
      3146.04      0.00000
      3152.79      0.00000
      3159.56      0.00000
      3166.33      0.00000
      3173.13      0.00000
      3179.94      0.00000
      3186.76      0.00000
      3193.60      0.00000
      3200.45      0.00000
      3207.32      0.00000
      3214.20      0.00000
      3221.09      0.00000
      3228.01      0.00000
      3234.93      0.00000
      3241.87      0.00000
      3248.83      0.00000
      3255.80      0.00000
      3262.78      0.00000
      3269.79      0.00000
      3276.80      0.00000
      3283.83      0.00000
      3290.88      0.00000
      3297.94      0.00000
      3305.02      0.00000
      3312.10      0.00000
      3319.21      0.00000
      3326.34      0.00000
      3333.47      0.00000
      3340.62      0.00000
      3347.79      0.00000
      3354.97      0.00000
      3362.17      0.00000
      3369.39      0.00000
      3376.62      0.00000
      3383.86      0.00000
      3391.12      0.00000
      3398.40      0.00000
      3405.69      0.00000
      3412.99      0.00000
      3420.32      0.00000
      3427.66      0.00000
      3435.02      0.00000
      3442.38      0.00000
      3449.77      0.00000
      3457.17      0.00000
      3464.59      0.00000
      3472.02      0.00000
      3479.47      0.00000
      3486.93      0.00000
      3494.42      0.00000
      3501.92      0.00000
      3509.43      0.00000
      3516.96      0.00000
      3524.51      0.00000
      3532.07      0.00000
      3539.64      0.00000
      3547.24      0.00000
      3554.85      0.00000
      3562.48      0.00000
      3570.12      0.00000
      3577.78      0.00000
      3585.46      0.00000
      3593.15      0.00000
      3600.86      0.00000
      3608.59      0.00000
      3616.33      0.00000
      3624.09      0.00000
      3631.87      0.00000
      3639.66      0.00000
      3647.47      0.00000
      3655.29      0.00000
      3663.14      0.00000
      3670.99      0.00000
      3678.87      0.00000
      3686.77      0.00000
      3694.68      0.00000
      3702.61      0.00000
      3710.55      0.00000
      3718.51      0.00000
      3726.49      0.00000
      3734.48      0.00000
      3742.50      0.00000
      3750.53      0.00000
      3758.57      0.00000
      3766.64      0.00000
      3774.72      0.00000
      3782.82      0.00000
      3790.93      0.00000
      3799.07      0.00000
      3807.22      0.00000
      3815.39      0.00000
      3823.58      0.00000
      3831.78      0.00000
      3840.01      0.00000
      3848.24      0.00000
      3856.50      0.00000
      3864.78      0.00000
      3873.06      0.00000
      3881.37      0.00000
      3889.70      0.00000
      3898.05      0.00000
      3906.41      0.00000
      3914.79      0.00000
      3923.20      0.00000
      3931.61      0.00000
      3940.05      0.00000
      3948.50      0.00000
      3956.97      0.00000
      3965.46      0.00000
      3973.97      0.00000
      3982.49      0.00000
      3991.04      0.00000
      3999.61      0.00000
      4008.19      0.00000
      4016.78      0.00000
      4025.40      0.00000
      4034.04      0.00000
      4042.70      0.00000
      4051.37      0.00000
      4060.06      0.00000
      4068.78      0.00000
      4077.51      0.00000
      4086.25      0.00000
      4095.02      0.00000
      4103.81      0.00000
      4112.61      0.00000
      4121.44      0.00000
      4130.28      0.00000
      4139.15      0.00000
      4148.02      0.00000
      4156.93      0.00000
      4165.85      0.00000
      4174.78      0.00000
      4183.74      0.00000
      4192.72      0.00000
      4201.71      0.00000
      4210.73      0.00000
      4219.76      0.00000
      4228.82      0.00000
      4237.89      0.00000
      4246.98      0.00000
      4256.10      0.00000
      4265.22      0.00000
      4274.38      0.00000
      4283.55      0.00000
      4292.73      0.00000
      4301.95      0.00000
      4311.18      0.00000
      4320.43      0.00000
      4329.70      0.00000
      4338.99      0.00000
      4348.30      0.00000
      4357.63      0.00000
      4366.98      0.00000
      4376.35      0.00000
      4385.74      0.00000
      4395.15      0.00000
      4404.58      0.00000
      4414.03      0.00000
      4423.50      0.00000
      4432.99      0.00000
      4442.50      0.00000
      4452.04      0.00000
      4461.59      0.00000
      4471.16      0.00000
      4480.76      0.00000
      4490.37      0.00000
      4500.00      0.00000
